phi[deg] B[T]
0.00 0.99788
0.50 0.99756
1.00 0.99741
1.50 0.99732
2.00 0.99726
2.50 0.99724
3.00 0.99700
3.50 0.99651
4.00 0.99605
4.50 0.99566
5.00 0.99541
5.50 0.99511
6.00 0.99476
6.50 0.99444
7.00 0.99415
7.50 0.99390
8.00 0.99368
8.50 0.99382
9.00 0.99406
9.50 0.99416
10.00 0.99428
10.50 0.99443
11.00 0.99461
11.50 0.99495
12.00 0.99580
12.50 0.99668
13.00 0.99758
13.50 0.99844
14.00 0.99912
14.50 1.00032
15.00 1.00154
15.50 1.00277
16.00 1.00403
16.50 1.00524
17.00 1.00623
17.50 1.00749
18.00 1.00876
18.50 1.01004
19.00 1.01134
19.50 1.01240
20.00 1.01273
20.50 1.01302
21.00 1.01328
21.50 1.01355
22.00 1.01383
22.50 1.01388
23.00 1.01327
23.50 1.01173
24.00 1.00971
24.50 1.00769
25.00 1.00567
25.50 1.00366
26.00 1.00166
26.50 0.99655
27.00 0.99197
27.50 0.98740
28.00 0.98281
28.50 0.97820
29.00 0.97358
29.50 0.96642
30.00 0.95747
30.50 0.95008
31.00 0.94265
31.50 0.93517
32.00 0.92765
32.50 0.91570
33.00 0.90129
33.50 0.88681
34.00 0.87227
34.50 0.85969
35.00 0.84935
35.50 0.83591
36.00 0.81812
36.50 0.80060
37.00 0.78405
37.50 0.76740
38.00 0.75067
38.50 0.73384
39.00 0.71312
39.50 0.69048
40.00 0.66775
40.50 0.64494
41.00 0.62263
41.50 0.60339
42.00 0.58217
42.50 0.55710
43.00 0.53484
43.50 0.51361
44.00 0.49231
44.50 0.47093
45.00 0.44949
45.50 0.42880
46.00 0.40804
46.50 0.38722
47.00 0.36633
47.50 0.34538
48.00 0.32435
48.50 0.30533
49.00 0.28851
49.50 0.27302
50.00 0.25751
50.50 0.24197
51.00 0.22642
51.50 0.21323
52.00 0.20175
52.50 0.19024
53.00 0.17872
53.50 0.16719
54.00 0.15563
54.50 0.14406
55.00 0.13512
55.50 0.12805
56.00 0.12095
56.50 0.11385
57.00 0.10676
57.50 0.09966
58.00 0.09257
58.50 0.08548
59.00 0.08032
59.50 0.07608
60.00 0.07184
60.50 0.06760
61.00 0.06338
61.50 0.05940
62.00 0.05543
62.50 0.05146
63.00 0.04750
63.50 0.04439
64.00 0.04227
64.50 0.04014
65.00 0.03802
65.50 0.03590
66.00 0.03378
66.50 0.03166
67.00 0.02954
67.50 0.02743
68.00 0.02547
68.50 0.02357
69.00 0.02167
69.50 0.02041
70.00 0.01942
70.50 0.01842
71.00 0.01743
71.50 0.01643
72.00 0.01544
72.50 0.01444
73.00 0.01345
73.50 0.01245
74.00 0.01159
74.50 0.01082
75.00 0.01004
75.50 0.00932
76.00 0.00890
76.50 0.00848
77.00 0.00806
77.50 0.00764
78.00 0.00723
78.50 0.00681
79.00 0.00639
79.50 0.00597
80.00 0.00559
80.50 0.00523
81.00 0.00487
81.50 0.00451
82.00 0.00434
82.50 0.00418
83.00 0.00403
83.50 0.00387
84.00 0.00372
84.50 0.00356
85.00 0.00340
85.50 0.00323
86.00 0.00308
86.50 0.00304
87.00 0.00297
87.50 0.00291
88.00 0.00284
88.50 0.00277
89.00 0.00271
89.50 0.00265
90.00 0.00258
90.00 0.00258
90.50 0.00265
91.00 0.00271
91.50 0.00277
92.00 0.00284
92.50 0.00291
93.00 0.00297
93.50 0.00304
94.00 0.00308
94.50 0.00323
95.00 0.00340
95.50 0.00356
96.00 0.00372
96.50 0.00387
97.00 0.00403
97.50 0.00418
98.00 0.00434
98.50 0.00451
99.00 0.00487
99.50 0.00523
100.00 0.00559
100.50 0.00597
101.00 0.00639
101.50 0.00681
102.00 0.00723
102.50 0.00764
103.00 0.00806
103.50 0.00848
104.00 0.00890
104.50 0.00932
105.00 0.01004
105.50 0.01082
106.00 0.01159
106.50 0.01245
107.00 0.01345
107.50 0.01444
108.00 0.01544
108.50 0.01643
109.00 0.01743
109.50 0.01842
110.00 0.01942
110.50 0.02041
111.00 0.02167
111.50 0.02357
112.00 0.02547
112.50 0.02743
113.00 0.02954
113.50 0.03166
114.00 0.03378
114.50 0.03590
115.00 0.03802
115.50 0.04014
116.00 0.04227
116.50 0.04439
117.00 0.04750
117.50 0.05146
118.00 0.05543
118.50 0.05940
119.00 0.06338
119.50 0.06760
120.00 0.07184
120.50 0.07608
121.00 0.08032
121.50 0.08548
122.00 0.09257
122.50 0.09966
123.00 0.10676
123.50 0.11385
124.00 0.12095
124.50 0.12805
125.00 0.13512
125.50 0.14406
126.00 0.15563
126.50 0.16719
127.00 0.17872
127.50 0.19024
128.00 0.20175
128.50 0.21323
129.00 0.22642
129.50 0.24197
130.00 0.25751
130.50 0.27302
131.00 0.28851
131.50 0.30533
132.00 0.32435
132.50 0.34538
133.00 0.36633
133.50 0.38722
134.00 0.40804
134.50 0.42880
135.00 0.44949
135.50 0.47093
136.00 0.49231
136.50 0.51361
137.00 0.53484
137.50 0.55710
138.00 0.58217
138.50 0.60339
139.00 0.62263
139.50 0.64494
140.00 0.66775
140.50 0.69048
141.00 0.71312
141.50 0.73384
142.00 0.75067
142.50 0.76740
143.00 0.78405
143.50 0.80060
144.00 0.81812
144.50 0.83591
145.00 0.84935
145.50 0.85969
146.00 0.87227
146.50 0.88681
147.00 0.90129
147.50 0.91570
148.00 0.92765
148.50 0.93517
149.00 0.94265
149.50 0.95008
150.00 0.95747
150.50 0.96642
151.00 0.97358
151.50 0.97820
152.00 0.98281
152.50 0.98740
153.00 0.99197
153.50 0.99655
154.00 1.00166
154.50 1.00366
155.00 1.00567
155.50 1.00769
156.00 1.00971
156.50 1.01173
157.00 1.01327
157.50 1.01388
158.00 1.01383
158.50 1.01355
159.00 1.01328
159.50 1.01302
160.00 1.01273
160.50 1.01240
161.00 1.01134
161.50 1.01004
162.00 1.00876
162.50 1.00749
163.00 1.00623
163.50 1.00524
164.00 1.00403
164.50 1.00277
165.00 1.00154
165.50 1.00032
166.00 0.99912
166.50 0.99844
167.00 0.99758
167.50 0.99668
168.00 0.99580
168.50 0.99495
169.00 0.99461
169.50 0.99443
170.00 0.99428
170.50 0.99416
171.00 0.99406
171.50 0.99382
172.00 0.99368
172.50 0.99390
173.00 0.99415
173.50 0.99444
174.00 0.99476
174.50 0.99511
175.00 0.99541
175.50 0.99566
176.00 0.99605
176.50 0.99651
177.00 0.99700
177.50 0.99724
178.00 0.99726
178.50 0.99732
179.00 0.99741
179.50 0.99756
180.00 0.99788
180.00 0.99788
180.50 0.99756
181.00 0.99741
181.50 0.99732
182.00 0.99726
182.50 0.99724
183.00 0.99700
183.50 0.99651
184.00 0.99605
184.50 0.99566
185.00 0.99541
185.50 0.99511
186.00 0.99476
186.50 0.99444
187.00 0.99415
187.50 0.99390
188.00 0.99368
188.50 0.99382
189.00 0.99406
189.50 0.99416
190.00 0.99428
190.50 0.99443
191.00 0.99461
191.50 0.99495
192.00 0.99580
192.50 0.99668
193.00 0.99758
193.50 0.99844
194.00 0.99912
194.50 1.00032
195.00 1.00154
195.50 1.00277
196.00 1.00403
196.50 1.00524
197.00 1.00623
197.50 1.00749
198.00 1.00876
198.50 1.01004
199.00 1.01134
199.50 1.01240
200.00 1.01273
200.50 1.01302
201.00 1.01328
201.50 1.01355
202.00 1.01383
202.50 1.01388
203.00 1.01327
203.50 1.01173
204.00 1.00971
204.50 1.00769
205.00 1.00567
205.50 1.00366
206.00 1.00166
206.50 0.99655
207.00 0.99197
207.50 0.98740
208.00 0.98281
208.50 0.97820
209.00 0.97358
209.50 0.96642
210.00 0.95747
210.50 0.95008
211.00 0.94265
211.50 0.93517
212.00 0.92765
212.50 0.91570
213.00 0.90129
213.50 0.88681
214.00 0.87227
214.50 0.85969
215.00 0.84935
215.50 0.83591
216.00 0.81812
216.50 0.80060
217.00 0.78405
217.50 0.76740
218.00 0.75067
218.50 0.73384
219.00 0.71312
219.50 0.69048
220.00 0.66775
220.50 0.64494
221.00 0.62263
221.50 0.60339
222.00 0.58217
222.50 0.55710
223.00 0.53484
223.50 0.51361
224.00 0.49231
224.50 0.47093
225.00 0.44949
225.50 0.42880
226.00 0.40804
226.50 0.38722
227.00 0.36633
227.50 0.34538
228.00 0.32435
228.50 0.30533
229.00 0.28851
229.50 0.27302
230.00 0.25751
230.50 0.24197
231.00 0.22642
231.50 0.21323
232.00 0.20175
232.50 0.19024
233.00 0.17872
233.50 0.16719
234.00 0.15563
234.50 0.14406
235.00 0.13512
235.50 0.12805
236.00 0.12095
236.50 0.11385
237.00 0.10676
237.50 0.09966
238.00 0.09257
238.50 0.08548
239.00 0.08032
239.50 0.07608
240.00 0.07184
240.50 0.06760
241.00 0.06338
241.50 0.05940
242.00 0.05543
242.50 0.05146
243.00 0.04750
243.50 0.04439
244.00 0.04227
244.50 0.04014
245.00 0.03802
245.50 0.03590
246.00 0.03378
246.50 0.03166
247.00 0.02954
247.50 0.02743
248.00 0.02547
248.50 0.02357
249.00 0.02167
249.50 0.02041
250.00 0.01942
250.50 0.01842
251.00 0.01743
251.50 0.01643
252.00 0.01544
252.50 0.01444
253.00 0.01345
253.50 0.01245
254.00 0.01159
254.50 0.01082
255.00 0.01004
255.50 0.00932
256.00 0.00890
256.50 0.00848
257.00 0.00806
257.50 0.00764
258.00 0.00723
258.50 0.00681
259.00 0.00639
259.50 0.00597
260.00 0.00559
260.50 0.00523
261.00 0.00487
261.50 0.00451
262.00 0.00434
262.50 0.00418
263.00 0.00403
263.50 0.00387
264.00 0.00372
264.50 0.00356
265.00 0.00340
265.50 0.00323
266.00 0.00308
266.50 0.00304
267.00 0.00297
267.50 0.00291
268.00 0.00284
268.50 0.00277
269.00 0.00271
269.50 0.00265
270.00 0.00258
270.00 0.00258
270.50 0.00265
271.00 0.00271
271.50 0.00277
272.00 0.00284
272.50 0.00291
273.00 0.00297
273.50 0.00304
274.00 0.00308
274.50 0.00323
275.00 0.00340
275.50 0.00356
276.00 0.00372
276.50 0.00387
277.00 0.00403
277.50 0.00418
278.00 0.00434
278.50 0.00451
279.00 0.00487
279.50 0.00523
280.00 0.00559
280.50 0.00597
281.00 0.00639
281.50 0.00681
282.00 0.00723
282.50 0.00764
283.00 0.00806
283.50 0.00848
284.00 0.00890
284.50 0.00932
285.00 0.01004
285.50 0.01082
286.00 0.01159
286.50 0.01245
287.00 0.01345
287.50 0.01444
288.00 0.01544
288.50 0.01643
289.00 0.01743
289.50 0.01842
290.00 0.01942
290.50 0.02041
291.00 0.02167
291.50 0.02357
292.00 0.02547
292.50 0.02743
293.00 0.02954
293.50 0.03166
294.00 0.03378
294.50 0.03590
295.00 0.03802
295.50 0.04014
296.00 0.04227
296.50 0.04439
297.00 0.04750
297.50 0.05146
298.00 0.05543
298.50 0.05940
299.00 0.06338
299.50 0.06760
300.00 0.07184
300.50 0.07608
301.00 0.08032
301.50 0.08548
302.00 0.09257
302.50 0.09966
303.00 0.10676
303.50 0.11385
304.00 0.12095
304.50 0.12805
305.00 0.13512
305.50 0.14406
306.00 0.15563
306.50 0.16719
307.00 0.17872
307.50 0.19024
308.00 0.20175
308.50 0.21323
309.00 0.22642
309.50 0.24197
310.00 0.25751
310.50 0.27302
311.00 0.28851
311.50 0.30533
312.00 0.32435
312.50 0.34538
313.00 0.36633
313.50 0.38722
314.00 0.40804
314.50 0.42880
315.00 0.44949
315.50 0.47093
316.00 0.49231
316.50 0.51361
317.00 0.53484
317.50 0.55710
318.00 0.58217
318.50 0.60339
319.00 0.62263
319.50 0.64494
320.00 0.66775
320.50 0.69048
321.00 0.71312
321.50 0.73384
322.00 0.75067
322.50 0.76740
323.00 0.78405
323.50 0.80060
324.00 0.81812
324.50 0.83591
325.00 0.84935
325.50 0.85969
326.00 0.87227
326.50 0.88681
327.00 0.90129
327.50 0.91570
328.00 0.92765
328.50 0.93517
329.00 0.94265
329.50 0.95008
330.00 0.95747
330.50 0.96642
331.00 0.97358
331.50 0.97820
332.00 0.98281
332.50 0.98740
333.00 0.99197
333.50 0.99655
334.00 1.00166
334.50 1.00366
335.00 1.00567
335.50 1.00769
336.00 1.00971
336.50 1.01173
337.00 1.01327
337.50 1.01388
338.00 1.01383
338.50 1.01355
339.00 1.01328
339.50 1.01302
340.00 1.01273
340.50 1.01240
341.00 1.01134
341.50 1.01004
342.00 1.00876
342.50 1.00749
343.00 1.00623
343.50 1.00524
344.00 1.00403
344.50 1.00277
345.00 1.00154
345.50 1.00032
346.00 0.99912
346.50 0.99844
347.00 0.99758
347.50 0.99668
348.00 0.99580
348.50 0.99495
349.00 0.99461
349.50 0.99443
350.00 0.99428
350.50 0.99416
351.00 0.99406
351.50 0.99382
352.00 0.99368
352.50 0.99390
353.00 0.99415
353.50 0.99444
354.00 0.99476
354.50 0.99511
355.00 0.99541
355.50 0.99566
356.00 0.99605
356.50 0.99651
357.00 0.99700
357.50 0.99724
358.00 0.99726
358.50 0.99732
359.00 0.99741
359.50 0.99756
360.00 0.99788
