phi[deg] B[T]
0.00 0.84626
0.50 0.84529
1.00 0.84429
1.50 0.84391
2.00 0.84357
2.50 0.84320
3.00 0.84207
3.50 0.84038
4.00 0.83867
4.50 0.83694
5.00 0.83450
5.50 0.83194
6.00 0.82970
6.50 0.82742
7.00 0.82511
7.50 0.82276
8.00 0.82021
8.50 0.81469
9.00 0.80912
9.50 0.80527
10.00 0.80266
10.50 0.79997
11.00 0.79722
11.50 0.79326
12.00 0.78707
12.50 0.78079
13.00 0.77572
13.50 0.77244
14.00 0.76907
14.50 0.76560
15.00 0.76205
15.50 0.75840
16.00 0.75467
16.50 0.75093
17.00 0.75039
17.50 0.74991
18.00 0.74918
18.50 0.74830
19.00 0.74728
19.50 0.74610
20.00 0.74477
20.50 0.74406
21.00 0.74562
21.50 0.74713
22.00 0.74852
22.50 0.74977
23.00 0.75088
23.50 0.75186
24.00 0.75418
24.50 0.75714
25.00 0.75679
25.50 0.75633
26.00 0.75578
26.50 0.75512
27.00 0.75437
27.50 0.75550
28.00 0.75195
28.50 0.74547
29.00 0.73895
29.50 0.73236
30.00 0.72573
30.50 0.71904
31.00 0.71174
31.50 0.70238
32.00 0.68684
32.50 0.67127
33.00 0.65666
33.50 0.64281
34.00 0.62806
34.50 0.60848
35.00 0.58883
35.50 0.56912
36.00 0.54935
36.50 0.52951
37.00 0.51062
37.50 0.49033
38.00 0.47042
38.50 0.45050
39.00 0.43055
39.50 0.41059
40.00 0.39061
40.50 0.37124
41.00 0.35247
41.50 0.33471
42.00 0.31694
42.50 0.29918
43.00 0.28358
43.50 0.26867
44.00 0.25377
44.50 0.23888
45.00 0.22418
45.50 0.21253
46.00 0.20081
46.50 0.18909
47.00 0.17738
47.50 0.16701
48.00 0.15773
48.50 0.14845
49.00 0.13918
49.50 0.13065
50.00 0.12346
50.50 0.11622
51.00 0.10897
51.50 0.10210
52.00 0.09650
52.50 0.09090
53.00 0.08531
53.50 0.07991
54.00 0.07500
54.50 0.07134
55.00 0.06752
55.50 0.06368
56.00 0.05985
56.50 0.05602
57.00 0.05220
57.50 0.04838
58.00 0.04604
58.50 0.04385
59.00 0.04167
59.50 0.03949
60.00 0.03731
60.50 0.03513
61.00 0.03296
61.50 0.03079
62.00 0.02840
62.50 0.02603
63.00 0.02454
63.50 0.02323
64.00 0.02212
64.50 0.02101
65.00 0.01990
65.50 0.01879
66.00 0.01769
66.50 0.01658
67.00 0.01547
67.50 0.01436
68.00 0.01326
68.50 0.01238
69.00 0.01161
69.50 0.01084
70.00 0.01023
70.50 0.00971
71.00 0.00920
71.50 0.00868
72.00 0.00817
72.50 0.00765
73.00 0.00715
73.50 0.00672
74.00 0.00629
74.50 0.00587
75.00 0.00554
75.50 0.00529
76.00 0.00503
76.50 0.00477
77.00 0.00451
77.50 0.00426
78.00 0.00400
78.50 0.00375
79.00 0.00351
79.50 0.00328
80.00 0.00306
80.50 0.00294
81.00 0.00283
81.50 0.00271
82.00 0.00260
82.50 0.00248
83.00 0.00237
83.50 0.00226
84.00 0.00214
84.50 0.00203
85.00 0.00191
85.50 0.00186
86.00 0.00183
86.50 0.00180
87.00 0.00176
87.50 0.00172
88.00 0.00168
88.50 0.00164
89.00 0.00160
89.50 0.00156
90.00 0.00152
90.00 0.00152
90.50 0.00156
91.00 0.00160
91.50 0.00164
92.00 0.00168
92.50 0.00172
93.00 0.00176
93.50 0.00180
94.00 0.00183
94.50 0.00186
95.00 0.00191
95.50 0.00203
96.00 0.00214
96.50 0.00226
97.00 0.00237
97.50 0.00248
98.00 0.00260
98.50 0.00271
99.00 0.00283
99.50 0.00294
100.00 0.00306
100.50 0.00328
101.00 0.00351
101.50 0.00375
102.00 0.00400
102.50 0.00426
103.00 0.00451
103.50 0.00477
104.00 0.00503
104.50 0.00529
105.00 0.00554
105.50 0.00587
106.00 0.00629
106.50 0.00672
107.00 0.00715
107.50 0.00765
108.00 0.00817
108.50 0.00868
109.00 0.00920
109.50 0.00971
110.00 0.01023
110.50 0.01084
111.00 0.01161
111.50 0.01238
112.00 0.01326
112.50 0.01436
113.00 0.01547
113.50 0.01658
114.00 0.01769
114.50 0.01879
115.00 0.01990
115.50 0.02101
116.00 0.02212
116.50 0.02323
117.00 0.02454
117.50 0.02603
118.00 0.02840
118.50 0.03079
119.00 0.03296
119.50 0.03513
120.00 0.03731
120.50 0.03949
121.00 0.04167
121.50 0.04385
122.00 0.04604
122.50 0.04838
123.00 0.05220
123.50 0.05602
124.00 0.05985
124.50 0.06368
125.00 0.06752
125.50 0.07134
126.00 0.07500
126.50 0.07991
127.00 0.08531
127.50 0.09090
128.00 0.09650
128.50 0.10210
129.00 0.10897
129.50 0.11622
130.00 0.12346
130.50 0.13065
131.00 0.13918
131.50 0.14845
132.00 0.15773
132.50 0.16701
133.00 0.17738
133.50 0.18909
134.00 0.20081
134.50 0.21253
135.00 0.22418
135.50 0.23888
136.00 0.25377
136.50 0.26867
137.00 0.28358
137.50 0.29918
138.00 0.31694
138.50 0.33471
139.00 0.35247
139.50 0.37124
140.00 0.39061
140.50 0.41059
141.00 0.43055
141.50 0.45050
142.00 0.47042
142.50 0.49033
143.00 0.51062
143.50 0.52951
144.00 0.54935
144.50 0.56912
145.00 0.58883
145.50 0.60848
146.00 0.62806
146.50 0.64281
147.00 0.65666
147.50 0.67127
148.00 0.68684
148.50 0.70238
149.00 0.71174
149.50 0.71904
150.00 0.72573
150.50 0.73236
151.00 0.73895
151.50 0.74547
152.00 0.75195
152.50 0.75550
153.00 0.75437
153.50 0.75512
154.00 0.75578
154.50 0.75633
155.00 0.75679
155.50 0.75714
156.00 0.75418
156.50 0.75186
157.00 0.75088
157.50 0.74977
158.00 0.74852
158.50 0.74713
159.00 0.74562
159.50 0.74406
160.00 0.74477
160.50 0.74610
161.00 0.74728
161.50 0.74830
162.00 0.74918
162.50 0.74991
163.00 0.75039
163.50 0.75093
164.00 0.75467
164.50 0.75840
165.00 0.76205
165.50 0.76560
166.00 0.76907
166.50 0.77244
167.00 0.77572
167.50 0.78079
168.00 0.78707
168.50 0.79326
169.00 0.79722
169.50 0.79997
170.00 0.80266
170.50 0.80527
171.00 0.80912
171.50 0.81469
172.00 0.82021
172.50 0.82276
173.00 0.82511
173.50 0.82742
174.00 0.82970
174.50 0.83194
175.00 0.83450
175.50 0.83694
176.00 0.83867
176.50 0.84038
177.00 0.84207
177.50 0.84320
178.00 0.84357
178.50 0.84391
179.00 0.84429
179.50 0.84529
180.00 0.84626
180.00 0.84626
180.50 0.84529
181.00 0.84429
181.50 0.84391
182.00 0.84357
182.50 0.84320
183.00 0.84207
183.50 0.84038
184.00 0.83867
184.50 0.83694
185.00 0.83450
185.50 0.83194
186.00 0.82970
186.50 0.82742
187.00 0.82511
187.50 0.82276
188.00 0.82021
188.50 0.81469
189.00 0.80912
189.50 0.80527
190.00 0.80266
190.50 0.79997
191.00 0.79722
191.50 0.79326
192.00 0.78707
192.50 0.78079
193.00 0.77572
193.50 0.77244
194.00 0.76907
194.50 0.76560
195.00 0.76205
195.50 0.75840
196.00 0.75467
196.50 0.75093
197.00 0.75039
197.50 0.74991
198.00 0.74918
198.50 0.74830
199.00 0.74728
199.50 0.74610
200.00 0.74477
200.50 0.74406
201.00 0.74562
201.50 0.74713
202.00 0.74852
202.50 0.74977
203.00 0.75088
203.50 0.75186
204.00 0.75418
204.50 0.75714
205.00 0.75679
205.50 0.75633
206.00 0.75578
206.50 0.75512
207.00 0.75437
207.50 0.75550
208.00 0.75195
208.50 0.74547
209.00 0.73895
209.50 0.73236
210.00 0.72573
210.50 0.71904
211.00 0.71174
211.50 0.70238
212.00 0.68684
212.50 0.67127
213.00 0.65666
213.50 0.64281
214.00 0.62806
214.50 0.60848
215.00 0.58883
215.50 0.56912
216.00 0.54935
216.50 0.52951
217.00 0.51062
217.50 0.49033
218.00 0.47042
218.50 0.45050
219.00 0.43055
219.50 0.41059
220.00 0.39061
220.50 0.37124
221.00 0.35247
221.50 0.33471
222.00 0.31694
222.50 0.29918
223.00 0.28358
223.50 0.26867
224.00 0.25377
224.50 0.23888
225.00 0.22418
225.50 0.21253
226.00 0.20081
226.50 0.18909
227.00 0.17738
227.50 0.16701
228.00 0.15773
228.50 0.14845
229.00 0.13918
229.50 0.13065
230.00 0.12346
230.50 0.11622
231.00 0.10897
231.50 0.10210
232.00 0.09650
232.50 0.09090
233.00 0.08531
233.50 0.07991
234.00 0.07500
234.50 0.07134
235.00 0.06752
235.50 0.06368
236.00 0.05985
236.50 0.05602
237.00 0.05220
237.50 0.04838
238.00 0.04604
238.50 0.04385
239.00 0.04167
239.50 0.03949
240.00 0.03731
240.50 0.03513
241.00 0.03296
241.50 0.03079
242.00 0.02840
242.50 0.02603
243.00 0.02454
243.50 0.02323
244.00 0.02212
244.50 0.02101
245.00 0.01990
245.50 0.01879
246.00 0.01769
246.50 0.01658
247.00 0.01547
247.50 0.01436
248.00 0.01326
248.50 0.01238
249.00 0.01161
249.50 0.01084
250.00 0.01023
250.50 0.00971
251.00 0.00920
251.50 0.00868
252.00 0.00817
252.50 0.00765
253.00 0.00715
253.50 0.00672
254.00 0.00629
254.50 0.00587
255.00 0.00554
255.50 0.00529
256.00 0.00503
256.50 0.00477
257.00 0.00451
257.50 0.00426
258.00 0.00400
258.50 0.00375
259.00 0.00351
259.50 0.00328
260.00 0.00306
260.50 0.00294
261.00 0.00283
261.50 0.00271
262.00 0.00260
262.50 0.00248
263.00 0.00237
263.50 0.00226
264.00 0.00214
264.50 0.00203
265.00 0.00191
265.50 0.00186
266.00 0.00183
266.50 0.00180
267.00 0.00176
267.50 0.00172
268.00 0.00168
268.50 0.00164
269.00 0.00160
269.50 0.00156
270.00 0.00152
270.00 0.00152
270.50 0.00156
271.00 0.00160
271.50 0.00164
272.00 0.00168
272.50 0.00172
273.00 0.00176
273.50 0.00180
274.00 0.00183
274.50 0.00186
275.00 0.00191
275.50 0.00203
276.00 0.00214
276.50 0.00226
277.00 0.00237
277.50 0.00248
278.00 0.00260
278.50 0.00271
279.00 0.00283
279.50 0.00294
280.00 0.00306
280.50 0.00328
281.00 0.00351
281.50 0.00375
282.00 0.00400
282.50 0.00426
283.00 0.00451
283.50 0.00477
284.00 0.00503
284.50 0.00529
285.00 0.00554
285.50 0.00587
286.00 0.00629
286.50 0.00672
287.00 0.00715
287.50 0.00765
288.00 0.00817
288.50 0.00868
289.00 0.00920
289.50 0.00971
290.00 0.01023
290.50 0.01084
291.00 0.01161
291.50 0.01238
292.00 0.01326
292.50 0.01436
293.00 0.01547
293.50 0.01658
294.00 0.01769
294.50 0.01879
295.00 0.01990
295.50 0.02101
296.00 0.02212
296.50 0.02323
297.00 0.02454
297.50 0.02603
298.00 0.02840
298.50 0.03079
299.00 0.03296
299.50 0.03513
300.00 0.03731
300.50 0.03949
301.00 0.04167
301.50 0.04385
302.00 0.04604
302.50 0.04838
303.00 0.05220
303.50 0.05602
304.00 0.05985
304.50 0.06368
305.00 0.06752
305.50 0.07134
306.00 0.07500
306.50 0.07991
307.00 0.08531
307.50 0.09090
308.00 0.09650
308.50 0.10210
309.00 0.10897
309.50 0.11622
310.00 0.12346
310.50 0.13065
311.00 0.13918
311.50 0.14845
312.00 0.15773
312.50 0.16701
313.00 0.17738
313.50 0.18909
314.00 0.20081
314.50 0.21253
315.00 0.22418
315.50 0.23888
316.00 0.25377
316.50 0.26867
317.00 0.28358
317.50 0.29918
318.00 0.31694
318.50 0.33471
319.00 0.35247
319.50 0.37124
320.00 0.39061
320.50 0.41059
321.00 0.43055
321.50 0.45050
322.00 0.47042
322.50 0.49033
323.00 0.51062
323.50 0.52951
324.00 0.54935
324.50 0.56912
325.00 0.58883
325.50 0.60848
326.00 0.62806
326.50 0.64281
327.00 0.65666
327.50 0.67127
328.00 0.68684
328.50 0.70238
329.00 0.71174
329.50 0.71904
330.00 0.72573
330.50 0.73236
331.00 0.73895
331.50 0.74547
332.00 0.75195
332.50 0.75550
333.00 0.75437
333.50 0.75512
334.00 0.75578
334.50 0.75633
335.00 0.75679
335.50 0.75714
336.00 0.75418
336.50 0.75186
337.00 0.75088
337.50 0.74977
338.00 0.74852
338.50 0.74713
339.00 0.74562
339.50 0.74406
340.00 0.74477
340.50 0.74610
341.00 0.74728
341.50 0.74830
342.00 0.74918
342.50 0.74991
343.00 0.75039
343.50 0.75093
344.00 0.75467
344.50 0.75840
345.00 0.76205
345.50 0.76560
346.00 0.76907
346.50 0.77244
347.00 0.77572
347.50 0.78079
348.00 0.78707
348.50 0.79326
349.00 0.79722
349.50 0.79997
350.00 0.80266
350.50 0.80527
351.00 0.80912
351.50 0.81469
352.00 0.82021
352.50 0.82276
353.00 0.82511
353.50 0.82742
354.00 0.82970
354.50 0.83194
355.00 0.83450
355.50 0.83694
356.00 0.83867
356.50 0.84038
357.00 0.84207
357.50 0.84320
358.00 0.84357
358.50 0.84391
359.00 0.84429
359.50 0.84529
360.00 0.84626
