phi[deg] B[T]
0.00 1.20111
0.50 1.20103
1.00 1.20103
1.50 1.20119
2.00 1.20143
2.50 1.20174
3.00 1.20200
3.50 1.20204
4.00 1.20215
4.50 1.20234
5.00 1.20297
5.50 1.20358
6.00 1.20397
6.50 1.20443
7.00 1.20496
7.50 1.20558
8.00 1.20630
8.50 1.20623
9.00 1.20663
9.50 1.20744
10.00 1.20831
10.50 1.20923
11.00 1.21020
11.50 1.21123
12.00 1.21231
12.50 1.21186
13.00 1.21028
13.50 1.20876
14.00 1.20729
14.50 1.20608
15.00 1.20746
15.50 1.20885
16.00 1.21027
16.50 1.21130
17.00 1.21200
17.50 1.21273
18.00 1.21082
18.50 1.20745
19.00 1.20407
19.50 1.20068
20.00 1.19729
20.50 1.19389
21.00 1.19220
21.50 1.19205
22.00 1.19187
22.50 1.19030
23.00 1.18630
23.50 1.18226
24.00 1.17699
24.50 1.16835
25.00 1.15964
25.50 1.15086
26.00 1.14200
26.50 1.13307
27.00 1.12407
27.50 1.11500
28.00 1.10635
28.50 1.09969
29.00 1.09213
29.50 1.08123
30.00 1.07024
30.50 1.05866
31.00 1.04599
31.50 1.03322
32.00 1.02035
32.50 1.00738
33.00 0.99346
33.50 0.97601
34.00 0.95847
34.50 0.94084
35.00 0.92311
35.50 0.90530
36.00 0.88739
36.50 0.86827
37.00 0.84777
37.50 0.82709
38.00 0.80631
38.50 0.78586
39.00 0.76590
39.50 0.74566
40.00 0.72349
40.50 0.70270
41.00 0.68180
41.50 0.66080
42.00 0.63966
42.50 0.61620
43.00 0.59265
43.50 0.56899
44.00 0.54524
44.50 0.52144
45.00 0.49836
45.50 0.47469
46.00 0.45414
46.50 0.43379
47.00 0.41340
47.50 0.39296
48.00 0.37248
48.50 0.35399
49.00 0.33562
49.50 0.31722
50.00 0.29877
50.50 0.28029
51.00 0.26505
51.50 0.25146
52.00 0.23784
52.50 0.22421
53.00 0.21056
53.50 0.19690
54.00 0.18571
54.50 0.17648
55.00 0.16725
55.50 0.15803
56.00 0.14906
56.50 0.14020
57.00 0.13134
57.50 0.12249
58.00 0.11364
58.50 0.10544
59.00 0.10060
59.50 0.09576
60.00 0.09092
60.50 0.08608
61.00 0.08124
61.50 0.07643
62.00 0.07179
62.50 0.06715
63.00 0.06252
63.50 0.05789
64.00 0.05326
64.50 0.04951
65.00 0.04728
65.50 0.04505
66.00 0.04281
66.50 0.04058
67.00 0.03834
67.50 0.03611
68.00 0.03388
68.50 0.03164
69.00 0.02941
69.50 0.02724
70.00 0.02507
70.50 0.02381
71.00 0.02273
71.50 0.02165
72.00 0.02057
72.50 0.01950
73.00 0.01842
73.50 0.01735
74.00 0.01627
74.50 0.01520
75.00 0.01413
75.50 0.01306
76.00 0.01200
76.50 0.01151
77.00 0.01102
77.50 0.01053
78.00 0.01004
78.50 0.00954
79.00 0.00900
79.50 0.00846
80.00 0.00792
80.50 0.00738
81.00 0.00684
81.50 0.00647
82.00 0.00625
82.50 0.00603
83.00 0.00581
83.50 0.00559
84.00 0.00537
84.50 0.00515
85.00 0.00493
85.50 0.00471
86.00 0.00455
86.50 0.00446
87.00 0.00437
87.50 0.00427
88.00 0.00418
88.50 0.00409
89.00 0.00400
89.50 0.00391
90.00 0.00382
90.00 0.00382
90.50 0.00391
91.00 0.00400
91.50 0.00409
92.00 0.00418
92.50 0.00427
93.00 0.00437
93.50 0.00446
94.00 0.00455
94.50 0.00471
95.00 0.00493
95.50 0.00515
96.00 0.00537
96.50 0.00559
97.00 0.00581
97.50 0.00603
98.00 0.00625
98.50 0.00647
99.00 0.00684
99.50 0.00738
100.00 0.00792
100.50 0.00846
101.00 0.00900
101.50 0.00954
102.00 0.01004
102.50 0.01053
103.00 0.01102
103.50 0.01151
104.00 0.01200
104.50 0.01306
105.00 0.01413
105.50 0.01520
106.00 0.01627
106.50 0.01735
107.00 0.01842
107.50 0.01950
108.00 0.02057
108.50 0.02165
109.00 0.02273
109.50 0.02381
110.00 0.02507
110.50 0.02724
111.00 0.02941
111.50 0.03164
112.00 0.03388
112.50 0.03611
113.00 0.03834
113.50 0.04058
114.00 0.04281
114.50 0.04505
115.00 0.04728
115.50 0.04951
116.00 0.05326
116.50 0.05789
117.00 0.06252
117.50 0.06715
118.00 0.07179
118.50 0.07643
119.00 0.08124
119.50 0.08608
120.00 0.09092
120.50 0.09576
121.00 0.10060
121.50 0.10544
122.00 0.11364
122.50 0.12249
123.00 0.13134
123.50 0.14020
124.00 0.14906
124.50 0.15803
125.00 0.16725
125.50 0.17648
126.00 0.18571
126.50 0.19690
127.00 0.21056
127.50 0.22421
128.00 0.23784
128.50 0.25146
129.00 0.26505
129.50 0.28029
130.00 0.29877
130.50 0.31722
131.00 0.33562
131.50 0.35399
132.00 0.37248
132.50 0.39296
133.00 0.41340
133.50 0.43379
134.00 0.45414
134.50 0.47469
135.00 0.49836
135.50 0.52144
136.00 0.54524
136.50 0.56899
137.00 0.59265
137.50 0.61620
138.00 0.63966
138.50 0.66080
139.00 0.68180
139.50 0.70270
140.00 0.72349
140.50 0.74566
141.00 0.76590
141.50 0.78586
142.00 0.80631
142.50 0.82709
143.00 0.84777
143.50 0.86827
144.00 0.88739
144.50 0.90530
145.00 0.92311
145.50 0.94084
146.00 0.95847
146.50 0.97601
147.00 0.99346
147.50 1.00738
148.00 1.02035
148.50 1.03322
149.00 1.04599
149.50 1.05866
150.00 1.07024
150.50 1.08123
151.00 1.09213
151.50 1.09969
152.00 1.10635
152.50 1.11500
153.00 1.12407
153.50 1.13307
154.00 1.14200
154.50 1.15086
155.00 1.15964
155.50 1.16835
156.00 1.17699
156.50 1.18226
157.00 1.18630
157.50 1.19030
158.00 1.19187
158.50 1.19205
159.00 1.19220
159.50 1.19389
160.00 1.19729
160.50 1.20068
161.00 1.20407
161.50 1.20745
162.00 1.21082
162.50 1.21273
163.00 1.21200
163.50 1.21130
164.00 1.21027
164.50 1.20885
165.00 1.20746
165.50 1.20608
166.00 1.20729
166.50 1.20876
167.00 1.21028
167.50 1.21186
168.00 1.21231
168.50 1.21123
169.00 1.21020
169.50 1.20923
170.00 1.20831
170.50 1.20744
171.00 1.20663
171.50 1.20623
172.00 1.20630
172.50 1.20558
173.00 1.20496
173.50 1.20443
174.00 1.20397
174.50 1.20358
175.00 1.20297
175.50 1.20234
176.00 1.20215
176.50 1.20204
177.00 1.20200
177.50 1.20174
178.00 1.20143
178.50 1.20119
179.00 1.20103
179.50 1.20103
180.00 1.20111
180.00 1.20111
180.50 1.20103
181.00 1.20103
181.50 1.20119
182.00 1.20143
182.50 1.20174
183.00 1.20200
183.50 1.20204
184.00 1.20215
184.50 1.20234
185.00 1.20297
185.50 1.20358
186.00 1.20397
186.50 1.20443
187.00 1.20496
187.50 1.20558
188.00 1.20630
188.50 1.20623
189.00 1.20663
189.50 1.20744
190.00 1.20831
190.50 1.20923
191.00 1.21020
191.50 1.21123
192.00 1.21231
192.50 1.21186
193.00 1.21028
193.50 1.20876
194.00 1.20729
194.50 1.20608
195.00 1.20746
195.50 1.20885
196.00 1.21027
196.50 1.21130
197.00 1.21200
197.50 1.21273
198.00 1.21082
198.50 1.20745
199.00 1.20407
199.50 1.20068
200.00 1.19729
200.50 1.19389
201.00 1.19220
201.50 1.19205
202.00 1.19187
202.50 1.19030
203.00 1.18630
203.50 1.18226
204.00 1.17699
204.50 1.16835
205.00 1.15964
205.50 1.15086
206.00 1.14200
206.50 1.13307
207.00 1.12407
207.50 1.11500
208.00 1.10635
208.50 1.09969
209.00 1.09213
209.50 1.08123
210.00 1.07024
210.50 1.05866
211.00 1.04599
211.50 1.03322
212.00 1.02035
212.50 1.00738
213.00 0.99346
213.50 0.97601
214.00 0.95847
214.50 0.94084
215.00 0.92311
215.50 0.90530
216.00 0.88739
216.50 0.86827
217.00 0.84777
217.50 0.82709
218.00 0.80631
218.50 0.78586
219.00 0.76590
219.50 0.74566
220.00 0.72349
220.50 0.70270
221.00 0.68180
221.50 0.66080
222.00 0.63966
222.50 0.61620
223.00 0.59265
223.50 0.56899
224.00 0.54524
224.50 0.52144
225.00 0.49836
225.50 0.47469
226.00 0.45414
226.50 0.43379
227.00 0.41340
227.50 0.39296
228.00 0.37248
228.50 0.35399
229.00 0.33562
229.50 0.31722
230.00 0.29877
230.50 0.28029
231.00 0.26505
231.50 0.25146
232.00 0.23784
232.50 0.22421
233.00 0.21056
233.50 0.19690
234.00 0.18571
234.50 0.17648
235.00 0.16725
235.50 0.15803
236.00 0.14906
236.50 0.14020
237.00 0.13134
237.50 0.12249
238.00 0.11364
238.50 0.10544
239.00 0.10060
239.50 0.09576
240.00 0.09092
240.50 0.08608
241.00 0.08124
241.50 0.07643
242.00 0.07179
242.50 0.06715
243.00 0.06252
243.50 0.05789
244.00 0.05326
244.50 0.04951
245.00 0.04728
245.50 0.04505
246.00 0.04281
246.50 0.04058
247.00 0.03834
247.50 0.03611
248.00 0.03388
248.50 0.03164
249.00 0.02941
249.50 0.02724
250.00 0.02507
250.50 0.02381
251.00 0.02273
251.50 0.02165
252.00 0.02057
252.50 0.01950
253.00 0.01842
253.50 0.01735
254.00 0.01627
254.50 0.01520
255.00 0.01413
255.50 0.01306
256.00 0.01200
256.50 0.01151
257.00 0.01102
257.50 0.01053
258.00 0.01004
258.50 0.00954
259.00 0.00900
259.50 0.00846
260.00 0.00792
260.50 0.00738
261.00 0.00684
261.50 0.00647
262.00 0.00625
262.50 0.00603
263.00 0.00581
263.50 0.00559
264.00 0.00537
264.50 0.00515
265.00 0.00493
265.50 0.00471
266.00 0.00455
266.50 0.00446
267.00 0.00437
267.50 0.00427
268.00 0.00418
268.50 0.00409
269.00 0.00400
269.50 0.00391
270.00 0.00382
270.00 0.00382
270.50 0.00391
271.00 0.00400
271.50 0.00409
272.00 0.00418
272.50 0.00427
273.00 0.00437
273.50 0.00446
274.00 0.00455
274.50 0.00471
275.00 0.00493
275.50 0.00515
276.00 0.00537
276.50 0.00559
277.00 0.00581
277.50 0.00603
278.00 0.00625
278.50 0.00647
279.00 0.00684
279.50 0.00738
280.00 0.00792
280.50 0.00846
281.00 0.00900
281.50 0.00954
282.00 0.01004
282.50 0.01053
283.00 0.01102
283.50 0.01151
284.00 0.01200
284.50 0.01306
285.00 0.01413
285.50 0.01520
286.00 0.01627
286.50 0.01735
287.00 0.01842
287.50 0.01950
288.00 0.02057
288.50 0.02165
289.00 0.02273
289.50 0.02381
290.00 0.02507
290.50 0.02724
291.00 0.02941
291.50 0.03164
292.00 0.03388
292.50 0.03611
293.00 0.03834
293.50 0.04058
294.00 0.04281
294.50 0.04505
295.00 0.04728
295.50 0.04951
296.00 0.05326
296.50 0.05789
297.00 0.06252
297.50 0.06715
298.00 0.07179
298.50 0.07643
299.00 0.08124
299.50 0.08608
300.00 0.09092
300.50 0.09576
301.00 0.10060
301.50 0.10544
302.00 0.11364
302.50 0.12249
303.00 0.13134
303.50 0.14020
304.00 0.14906
304.50 0.15803
305.00 0.16725
305.50 0.17648
306.00 0.18571
306.50 0.19690
307.00 0.21056
307.50 0.22421
308.00 0.23784
308.50 0.25146
309.00 0.26505
309.50 0.28029
310.00 0.29877
310.50 0.31722
311.00 0.33562
311.50 0.35399
312.00 0.37248
312.50 0.39296
313.00 0.41340
313.50 0.43379
314.00 0.45414
314.50 0.47469
315.00 0.49836
315.50 0.52144
316.00 0.54524
316.50 0.56899
317.00 0.59265
317.50 0.61620
318.00 0.63966
318.50 0.66080
319.00 0.68180
319.50 0.70270
320.00 0.72349
320.50 0.74566
321.00 0.76590
321.50 0.78586
322.00 0.80631
322.50 0.82709
323.00 0.84777
323.50 0.86827
324.00 0.88739
324.50 0.90530
325.00 0.92311
325.50 0.94084
326.00 0.95847
326.50 0.97601
327.00 0.99346
327.50 1.00738
328.00 1.02035
328.50 1.03322
329.00 1.04599
329.50 1.05866
330.00 1.07024
330.50 1.08123
331.00 1.09213
331.50 1.09969
332.00 1.10635
332.50 1.11500
333.00 1.12407
333.50 1.13307
334.00 1.14200
334.50 1.15086
335.00 1.15964
335.50 1.16835
336.00 1.17699
336.50 1.18226
337.00 1.18630
337.50 1.19030
338.00 1.19187
338.50 1.19205
339.00 1.19220
339.50 1.19389
340.00 1.19729
340.50 1.20068
341.00 1.20407
341.50 1.20745
342.00 1.21082
342.50 1.21273
343.00 1.21200
343.50 1.21130
344.00 1.21027
344.50 1.20885
345.00 1.20746
345.50 1.20608
346.00 1.20729
346.50 1.20876
347.00 1.21028
347.50 1.21186
348.00 1.21231
348.50 1.21123
349.00 1.21020
349.50 1.20923
350.00 1.20831
350.50 1.20744
351.00 1.20663
351.50 1.20623
352.00 1.20630
352.50 1.20558
353.00 1.20496
353.50 1.20443
354.00 1.20397
354.50 1.20358
355.00 1.20297
355.50 1.20234
356.00 1.20215
356.50 1.20204
357.00 1.20200
357.50 1.20174
358.00 1.20143
358.50 1.20119
359.00 1.20103
359.50 1.20103
360.00 1.20111
