phi[deg] B[T]
0.00 0.99107
0.50 0.99105
1.00 0.99110
1.50 0.99129
2.00 0.99156
2.50 0.99190
3.00 0.99225
3.50 0.99252
4.00 0.99286
4.50 0.99327
5.00 0.99396
5.50 0.99470
6.00 0.99541
6.50 0.99619
7.00 0.99707
7.50 0.99801
8.00 0.99902
8.50 0.99936
9.00 0.99960
9.50 1.00012
10.00 1.00133
10.50 1.00260
11.00 1.00392
11.50 1.00530
12.00 1.00690
12.50 1.00884
13.00 1.01083
13.50 1.01155
14.00 1.01220
14.50 1.01290
15.00 1.01363
15.50 1.01442
16.00 1.01525
16.50 1.01600
17.00 1.01589
17.50 1.01514
18.00 1.01442
18.50 1.01410
19.00 1.01389
19.50 1.01369
20.00 1.01348
20.50 1.01327
21.00 1.01306
21.50 1.01284
22.00 1.01421
22.50 1.01190
23.00 1.00776
23.50 1.00356
24.00 0.99932
24.50 0.99502
25.00 0.99066
25.50 0.98625
26.00 0.98179
26.50 0.97728
27.00 0.97272
27.50 0.96775
28.00 0.96052
28.50 0.95312
29.00 0.94562
29.50 0.93805
30.00 0.93038
30.50 0.92262
31.00 0.91479
31.50 0.90561
32.00 0.89581
32.50 0.88594
33.00 0.87598
33.50 0.86332
34.00 0.84816
34.50 0.83290
35.00 0.81753
35.50 0.80268
36.00 0.78824
36.50 0.77369
37.00 0.75904
37.50 0.74428
38.00 0.72591
38.50 0.70654
39.00 0.68705
39.50 0.66745
40.00 0.64774
40.50 0.62966
41.00 0.61253
41.50 0.59243
42.00 0.56927
42.50 0.54596
43.00 0.52568
43.50 0.50619
44.00 0.48663
44.50 0.46700
45.00 0.44730
45.50 0.42789
46.00 0.40841
46.50 0.38887
47.00 0.36927
47.50 0.34956
48.00 0.32972
48.50 0.31020
49.00 0.29173
49.50 0.27746
50.00 0.26316
50.50 0.24886
51.00 0.23453
51.50 0.22020
52.00 0.20697
52.50 0.19381
53.00 0.18063
53.50 0.17151
54.00 0.16271
54.50 0.15391
55.00 0.14510
55.50 0.13630
56.00 0.12749
56.50 0.11869
57.00 0.11063
57.50 0.10274
58.00 0.09507
58.50 0.09052
59.00 0.08598
59.50 0.08144
60.00 0.07691
60.50 0.07230
61.00 0.06750
61.50 0.06271
62.00 0.05791
62.50 0.05312
63.00 0.04970
63.50 0.04723
64.00 0.04477
64.50 0.04230
65.00 0.03983
65.50 0.03741
66.00 0.03501
66.50 0.03261
67.00 0.03021
67.50 0.02804
68.00 0.02671
68.50 0.02537
69.00 0.02404
69.50 0.02271
70.00 0.02136
70.50 0.01993
71.00 0.01850
71.50 0.01708
72.00 0.01565
72.50 0.01464
73.00 0.01390
73.50 0.01315
74.00 0.01242
74.50 0.01168
75.00 0.01095
75.50 0.01022
76.00 0.00949
76.50 0.00877
77.00 0.00831
77.50 0.00793
78.00 0.00755
78.50 0.00717
79.00 0.00678
79.50 0.00638
80.00 0.00598
80.50 0.00558
81.00 0.00519
81.50 0.00479
82.00 0.00457
82.50 0.00441
83.00 0.00424
83.50 0.00407
84.00 0.00391
84.50 0.00374
85.00 0.00358
85.50 0.00341
86.00 0.00326
86.50 0.00320
87.00 0.00313
87.50 0.00306
88.00 0.00299
88.50 0.00292
89.00 0.00285
89.50 0.00278
90.00 0.00272
90.00 0.00272
90.50 0.00278
91.00 0.00285
91.50 0.00292
92.00 0.00299
92.50 0.00306
93.00 0.00313
93.50 0.00320
94.00 0.00326
94.50 0.00341
95.00 0.00358
95.50 0.00374
96.00 0.00391
96.50 0.00407
97.00 0.00424
97.50 0.00441
98.00 0.00457
98.50 0.00479
99.00 0.00519
99.50 0.00558
100.00 0.00598
100.50 0.00638
101.00 0.00678
101.50 0.00717
102.00 0.00755
102.50 0.00793
103.00 0.00831
103.50 0.00877
104.00 0.00949
104.50 0.01022
105.00 0.01095
105.50 0.01168
106.00 0.01242
106.50 0.01315
107.00 0.01390
107.50 0.01464
108.00 0.01565
108.50 0.01708
109.00 0.01850
109.50 0.01993
110.00 0.02136
110.50 0.02271
111.00 0.02404
111.50 0.02537
112.00 0.02671
112.50 0.02804
113.00 0.03021
113.50 0.03261
114.00 0.03501
114.50 0.03741
115.00 0.03983
115.50 0.04230
116.00 0.04477
116.50 0.04723
117.00 0.04970
117.50 0.05312
118.00 0.05791
118.50 0.06271
119.00 0.06750
119.50 0.07230
120.00 0.07691
120.50 0.08144
121.00 0.08598
121.50 0.09052
122.00 0.09507
122.50 0.10274
123.00 0.11063
123.50 0.11869
124.00 0.12749
124.50 0.13630
125.00 0.14510
125.50 0.15391
126.00 0.16271
126.50 0.17151
127.00 0.18063
127.50 0.19381
128.00 0.20697
128.50 0.22020
129.00 0.23453
129.50 0.24886
130.00 0.26316
130.50 0.27746
131.00 0.29173
131.50 0.31020
132.00 0.32972
132.50 0.34956
133.00 0.36927
133.50 0.38887
134.00 0.40841
134.50 0.42789
135.00 0.44730
135.50 0.46700
136.00 0.48663
136.50 0.50619
137.00 0.52568
137.50 0.54596
138.00 0.56927
138.50 0.59243
139.00 0.61253
139.50 0.62966
140.00 0.64774
140.50 0.66745
141.00 0.68705
141.50 0.70654
142.00 0.72591
142.50 0.74428
143.00 0.75904
143.50 0.77369
144.00 0.78824
144.50 0.80268
145.00 0.81753
145.50 0.83290
146.00 0.84816
146.50 0.86332
147.00 0.87598
147.50 0.88594
148.00 0.89581
148.50 0.90561
149.00 0.91479
149.50 0.92262
150.00 0.93038
150.50 0.93805
151.00 0.94562
151.50 0.95312
152.00 0.96052
152.50 0.96775
153.00 0.97272
153.50 0.97728
154.00 0.98179
154.50 0.98625
155.00 0.99066
155.50 0.99502
156.00 0.99932
156.50 1.00356
157.00 1.00776
157.50 1.01190
158.00 1.01421
158.50 1.01284
159.00 1.01306
159.50 1.01327
160.00 1.01348
160.50 1.01369
161.00 1.01389
161.50 1.01410
162.00 1.01442
162.50 1.01514
163.00 1.01589
163.50 1.01600
164.00 1.01525
164.50 1.01442
165.00 1.01363
165.50 1.01290
166.00 1.01220
166.50 1.01155
167.00 1.01083
167.50 1.00884
168.00 1.00690
168.50 1.00530
169.00 1.00392
169.50 1.00260
170.00 1.00133
170.50 1.00012
171.00 0.99960
171.50 0.99936
172.00 0.99902
172.50 0.99801
173.00 0.99707
173.50 0.99619
174.00 0.99541
174.50 0.99470
175.00 0.99396
175.50 0.99327
176.00 0.99286
176.50 0.99252
177.00 0.99225
177.50 0.99190
178.00 0.99156
178.50 0.99129
179.00 0.99110
179.50 0.99105
180.00 0.99107
180.00 0.99107
180.50 0.99105
181.00 0.99110
181.50 0.99129
182.00 0.99156
182.50 0.99190
183.00 0.99225
183.50 0.99252
184.00 0.99286
184.50 0.99327
185.00 0.99396
185.50 0.99470
186.00 0.99541
186.50 0.99619
187.00 0.99707
187.50 0.99801
188.00 0.99902
188.50 0.99936
189.00 0.99960
189.50 1.00012
190.00 1.00133
190.50 1.00260
191.00 1.00392
191.50 1.00530
192.00 1.00690
192.50 1.00884
193.00 1.01083
193.50 1.01155
194.00 1.01220
194.50 1.01290
195.00 1.01363
195.50 1.01442
196.00 1.01525
196.50 1.01600
197.00 1.01589
197.50 1.01514
198.00 1.01442
198.50 1.01410
199.00 1.01389
199.50 1.01369
200.00 1.01348
200.50 1.01327
201.00 1.01306
201.50 1.01284
202.00 1.01421
202.50 1.01190
203.00 1.00776
203.50 1.00356
204.00 0.99932
204.50 0.99502
205.00 0.99066
205.50 0.98625
206.00 0.98179
206.50 0.97728
207.00 0.97272
207.50 0.96775
208.00 0.96052
208.50 0.95312
209.00 0.94562
209.50 0.93805
210.00 0.93038
210.50 0.92262
211.00 0.91479
211.50 0.90561
212.00 0.89581
212.50 0.88594
213.00 0.87598
213.50 0.86332
214.00 0.84816
214.50 0.83290
215.00 0.81753
215.50 0.80268
216.00 0.78824
216.50 0.77369
217.00 0.75904
217.50 0.74428
218.00 0.72591
218.50 0.70654
219.00 0.68705
219.50 0.66745
220.00 0.64774
220.50 0.62966
221.00 0.61253
221.50 0.59243
222.00 0.56927
222.50 0.54596
223.00 0.52568
223.50 0.50619
224.00 0.48663
224.50 0.46700
225.00 0.44730
225.50 0.42789
226.00 0.40841
226.50 0.38887
227.00 0.36927
227.50 0.34956
228.00 0.32972
228.50 0.31020
229.00 0.29173
229.50 0.27746
230.00 0.26316
230.50 0.24886
231.00 0.23453
231.50 0.22020
232.00 0.20697
232.50 0.19381
233.00 0.18063
233.50 0.17151
234.00 0.16271
234.50 0.15391
235.00 0.14510
235.50 0.13630
236.00 0.12749
236.50 0.11869
237.00 0.11063
237.50 0.10274
238.00 0.09507
238.50 0.09052
239.00 0.08598
239.50 0.08144
240.00 0.07691
240.50 0.07230
241.00 0.06750
241.50 0.06271
242.00 0.05791
242.50 0.05312
243.00 0.04970
243.50 0.04723
244.00 0.04477
244.50 0.04230
245.00 0.03983
245.50 0.03741
246.00 0.03501
246.50 0.03261
247.00 0.03021
247.50 0.02804
248.00 0.02671
248.50 0.02537
249.00 0.02404
249.50 0.02271
250.00 0.02136
250.50 0.01993
251.00 0.01850
251.50 0.01708
252.00 0.01565
252.50 0.01464
253.00 0.01390
253.50 0.01315
254.00 0.01242
254.50 0.01168
255.00 0.01095
255.50 0.01022
256.00 0.00949
256.50 0.00877
257.00 0.00831
257.50 0.00793
258.00 0.00755
258.50 0.00717
259.00 0.00678
259.50 0.00638
260.00 0.00598
260.50 0.00558
261.00 0.00519
261.50 0.00479
262.00 0.00457
262.50 0.00441
263.00 0.00424
263.50 0.00407
264.00 0.00391
264.50 0.00374
265.00 0.00358
265.50 0.00341
266.00 0.00326
266.50 0.00320
267.00 0.00313
267.50 0.00306
268.00 0.00299
268.50 0.00292
269.00 0.00285
269.50 0.00278
270.00 0.00272
270.00 0.00272
270.50 0.00278
271.00 0.00285
271.50 0.00292
272.00 0.00299
272.50 0.00306
273.00 0.00313
273.50 0.00320
274.00 0.00326
274.50 0.00341
275.00 0.00358
275.50 0.00374
276.00 0.00391
276.50 0.00407
277.00 0.00424
277.50 0.00441
278.00 0.00457
278.50 0.00479
279.00 0.00519
279.50 0.00558
280.00 0.00598
280.50 0.00638
281.00 0.00678
281.50 0.00717
282.00 0.00755
282.50 0.00793
283.00 0.00831
283.50 0.00877
284.00 0.00949
284.50 0.01022
285.00 0.01095
285.50 0.01168
286.00 0.01242
286.50 0.01315
287.00 0.01390
287.50 0.01464
288.00 0.01565
288.50 0.01708
289.00 0.01850
289.50 0.01993
290.00 0.02136
290.50 0.02271
291.00 0.02404
291.50 0.02537
292.00 0.02671
292.50 0.02804
293.00 0.03021
293.50 0.03261
294.00 0.03501
294.50 0.03741
295.00 0.03983
295.50 0.04230
296.00 0.04477
296.50 0.04723
297.00 0.04970
297.50 0.05312
298.00 0.05791
298.50 0.06271
299.00 0.06750
299.50 0.07230
300.00 0.07691
300.50 0.08144
301.00 0.08598
301.50 0.09052
302.00 0.09507
302.50 0.10274
303.00 0.11063
303.50 0.11869
304.00 0.12749
304.50 0.13630
305.00 0.14510
305.50 0.15391
306.00 0.16271
306.50 0.17151
307.00 0.18063
307.50 0.19381
308.00 0.20697
308.50 0.22020
309.00 0.23453
309.50 0.24886
310.00 0.26316
310.50 0.27746
311.00 0.29173
311.50 0.31020
312.00 0.32972
312.50 0.34956
313.00 0.36927
313.50 0.38887
314.00 0.40841
314.50 0.42789
315.00 0.44730
315.50 0.46700
316.00 0.48663
316.50 0.50619
317.00 0.52568
317.50 0.54596
318.00 0.56927
318.50 0.59243
319.00 0.61253
319.50 0.62966
320.00 0.64774
320.50 0.66745
321.00 0.68705
321.50 0.70654
322.00 0.72591
322.50 0.74428
323.00 0.75904
323.50 0.77369
324.00 0.78824
324.50 0.80268
325.00 0.81753
325.50 0.83290
326.00 0.84816
326.50 0.86332
327.00 0.87598
327.50 0.88594
328.00 0.89581
328.50 0.90561
329.00 0.91479
329.50 0.92262
330.00 0.93038
330.50 0.93805
331.00 0.94562
331.50 0.95312
332.00 0.96052
332.50 0.96775
333.00 0.97272
333.50 0.97728
334.00 0.98179
334.50 0.98625
335.00 0.99066
335.50 0.99502
336.00 0.99932
336.50 1.00356
337.00 1.00776
337.50 1.01190
338.00 1.01421
338.50 1.01284
339.00 1.01306
339.50 1.01327
340.00 1.01348
340.50 1.01369
341.00 1.01389
341.50 1.01410
342.00 1.01442
342.50 1.01514
343.00 1.01589
343.50 1.01600
344.00 1.01525
344.50 1.01442
345.00 1.01363
345.50 1.01290
346.00 1.01220
346.50 1.01155
347.00 1.01083
347.50 1.00884
348.00 1.00690
348.50 1.00530
349.00 1.00392
349.50 1.00260
350.00 1.00133
350.50 1.00012
351.00 0.99960
351.50 0.99936
352.00 0.99902
352.50 0.99801
353.00 0.99707
353.50 0.99619
354.00 0.99541
354.50 0.99470
355.00 0.99396
355.50 0.99327
356.00 0.99286
356.50 0.99252
357.00 0.99225
357.50 0.99190
358.00 0.99156
358.50 0.99129
359.00 0.99110
359.50 0.99105
360.00 0.99107
