phi[deg] B[T]
0.00 1.17318
0.50 1.17306
1.00 1.17293
1.50 1.17279
2.00 1.17265
2.50 1.17252
3.00 1.17229
3.50 1.17194
4.00 1.17160
4.50 1.17125
5.00 1.17091
5.50 1.17065
6.00 1.17068
6.50 1.17037
7.00 1.17006
7.50 1.16974
8.00 1.16941
8.50 1.16907
9.00 1.16983
9.50 1.17062
10.00 1.17140
10.50 1.17200
11.00 1.17181
11.50 1.17161
12.00 1.17161
12.50 1.17283
13.00 1.17403
13.50 1.17529
14.00 1.17659
14.50 1.17788
15.00 1.17914
15.50 1.18043
16.00 1.18216
16.50 1.18386
17.00 1.18553
17.50 1.18696
18.00 1.18838
18.50 1.18999
19.00 1.19149
19.50 1.19241
20.00 1.19332
20.50 1.19428
21.00 1.19533
21.50 1.19637
22.00 1.19627
22.50 1.19457
23.00 1.19286
23.50 1.19114
24.00 1.18941
24.50 1.18670
25.00 1.18231
25.50 1.17820
26.00 1.17459
26.50 1.17095
27.00 1.16728
27.50 1.16174
28.00 1.15496
28.50 1.14815
29.00 1.13947
29.50 1.12867
30.00 1.11782
30.50 1.10691
31.00 1.09661
31.50 1.08755
32.00 1.07841
32.50 1.06489
33.00 1.04794
33.50 1.03090
34.00 1.01378
34.50 0.99699
35.00 0.98086
35.50 0.96466
36.00 0.94421
36.50 0.92184
37.00 0.89941
37.50 0.88009
38.00 0.86092
38.50 0.84163
39.00 0.82019
39.50 0.79539
40.00 0.77049
40.50 0.74653
41.00 0.72330
41.50 0.70000
42.00 0.67661
42.50 0.65091
43.00 0.62509
43.50 0.59920
44.00 0.57324
44.50 0.54853
45.00 0.52399
45.50 0.49953
46.00 0.47498
46.50 0.45278
47.00 0.43062
47.50 0.40843
48.00 0.38620
48.50 0.36788
49.00 0.35019
49.50 0.33247
50.00 0.31472
50.50 0.29693
51.00 0.27912
51.50 0.26118
52.00 0.24313
52.50 0.23077
53.00 0.21955
53.50 0.20833
54.00 0.19694
54.50 0.18553
55.00 0.17412
55.50 0.16269
56.00 0.15125
56.50 0.13980
57.00 0.13147
57.50 0.12441
58.00 0.11829
58.50 0.11216
59.00 0.10603
59.50 0.09989
60.00 0.09375
60.50 0.08760
61.00 0.08145
61.50 0.07535
62.00 0.07099
62.50 0.06662
63.00 0.06227
63.50 0.05890
64.00 0.05617
64.50 0.05343
65.00 0.05070
65.50 0.04796
66.00 0.04522
66.50 0.04248
67.00 0.03974
67.50 0.03700
68.00 0.03426
68.50 0.03196
69.00 0.02982
69.50 0.02767
70.00 0.02585
70.50 0.02467
71.00 0.02348
71.50 0.02229
72.00 0.02110
72.50 0.01992
73.00 0.01873
73.50 0.01754
74.00 0.01635
74.50 0.01522
75.00 0.01412
75.50 0.01327
76.00 0.01265
76.50 0.01202
77.00 0.01142
77.50 0.01086
78.00 0.01029
78.50 0.00972
79.00 0.00915
79.50 0.00859
80.00 0.00802
80.50 0.00745
81.00 0.00712
81.50 0.00685
82.00 0.00658
82.50 0.00632
83.00 0.00605
83.50 0.00579
84.00 0.00552
84.50 0.00526
85.00 0.00500
85.50 0.00472
86.00 0.00463
86.50 0.00453
87.00 0.00443
87.50 0.00433
88.00 0.00424
88.50 0.00414
89.00 0.00405
89.50 0.00395
90.00 0.00386
90.00 0.00386
90.50 0.00395
91.00 0.00405
91.50 0.00414
92.00 0.00424
92.50 0.00433
93.00 0.00443
93.50 0.00453
94.00 0.00463
94.50 0.00472
95.00 0.00500
95.50 0.00526
96.00 0.00552
96.50 0.00579
97.00 0.00605
97.50 0.00632
98.00 0.00658
98.50 0.00685
99.00 0.00712
99.50 0.00745
100.00 0.00802
100.50 0.00859
101.00 0.00915
101.50 0.00972
102.00 0.01029
102.50 0.01086
103.00 0.01142
103.50 0.01202
104.00 0.01265
104.50 0.01327
105.00 0.01412
105.50 0.01522
106.00 0.01635
106.50 0.01754
107.00 0.01873
107.50 0.01992
108.00 0.02110
108.50 0.02229
109.00 0.02348
109.50 0.02467
110.00 0.02585
110.50 0.02767
111.00 0.02982
111.50 0.03196
112.00 0.03426
112.50 0.03700
113.00 0.03974
113.50 0.04248
114.00 0.04522
114.50 0.04796
115.00 0.05070
115.50 0.05343
116.00 0.05617
116.50 0.05890
117.00 0.06227
117.50 0.06662
118.00 0.07099
118.50 0.07535
119.00 0.08145
119.50 0.08760
120.00 0.09375
120.50 0.09989
121.00 0.10603
121.50 0.11216
122.00 0.11829
122.50 0.12441
123.00 0.13147
123.50 0.13980
124.00 0.15125
124.50 0.16269
125.00 0.17412
125.50 0.18553
126.00 0.19694
126.50 0.20833
127.00 0.21955
127.50 0.23077
128.00 0.24313
128.50 0.26118
129.00 0.27912
129.50 0.29693
130.00 0.31472
130.50 0.33247
131.00 0.35019
131.50 0.36788
132.00 0.38620
132.50 0.40843
133.00 0.43062
133.50 0.45278
134.00 0.47498
134.50 0.49953
135.00 0.52399
135.50 0.54853
136.00 0.57324
136.50 0.59920
137.00 0.62509
137.50 0.65091
138.00 0.67661
138.50 0.70000
139.00 0.72330
139.50 0.74653
140.00 0.77049
140.50 0.79539
141.00 0.82019
141.50 0.84163
142.00 0.86092
142.50 0.88009
143.00 0.89941
143.50 0.92184
144.00 0.94421
144.50 0.96466
145.00 0.98086
145.50 0.99699
146.00 1.01378
146.50 1.03090
147.00 1.04794
147.50 1.06489
148.00 1.07841
148.50 1.08755
149.00 1.09661
149.50 1.10691
150.00 1.11782
150.50 1.12867
151.00 1.13947
151.50 1.14815
152.00 1.15496
152.50 1.16174
153.00 1.16728
153.50 1.17095
154.00 1.17459
154.50 1.17820
155.00 1.18231
155.50 1.18670
156.00 1.18941
156.50 1.19114
157.00 1.19286
157.50 1.19457
158.00 1.19627
158.50 1.19637
159.00 1.19533
159.50 1.19428
160.00 1.19332
160.50 1.19241
161.00 1.19149
161.50 1.18999
162.00 1.18838
162.50 1.18696
163.00 1.18553
163.50 1.18386
164.00 1.18216
164.50 1.18043
165.00 1.17914
165.50 1.17788
166.00 1.17659
166.50 1.17529
167.00 1.17403
167.50 1.17283
168.00 1.17161
168.50 1.17161
169.00 1.17181
169.50 1.17200
170.00 1.17140
170.50 1.17062
171.00 1.16983
171.50 1.16907
172.00 1.16941
172.50 1.16974
173.00 1.17006
173.50 1.17037
174.00 1.17068
174.50 1.17065
175.00 1.17091
175.50 1.17125
176.00 1.17160
176.50 1.17194
177.00 1.17229
177.50 1.17252
178.00 1.17265
178.50 1.17279
179.00 1.17293
179.50 1.17306
180.00 1.17318
180.00 1.17318
180.50 1.17306
181.00 1.17293
181.50 1.17279
182.00 1.17265
182.50 1.17252
183.00 1.17229
183.50 1.17194
184.00 1.17160
184.50 1.17125
185.00 1.17091
185.50 1.17065
186.00 1.17068
186.50 1.17037
187.00 1.17006
187.50 1.16974
188.00 1.16941
188.50 1.16907
189.00 1.16983
189.50 1.17062
190.00 1.17140
190.50 1.17200
191.00 1.17181
191.50 1.17161
192.00 1.17161
192.50 1.17283
193.00 1.17403
193.50 1.17529
194.00 1.17659
194.50 1.17788
195.00 1.17914
195.50 1.18043
196.00 1.18216
196.50 1.18386
197.00 1.18553
197.50 1.18696
198.00 1.18838
198.50 1.18999
199.00 1.19149
199.50 1.19241
200.00 1.19332
200.50 1.19428
201.00 1.19533
201.50 1.19637
202.00 1.19627
202.50 1.19457
203.00 1.19286
203.50 1.19114
204.00 1.18941
204.50 1.18670
205.00 1.18231
205.50 1.17820
206.00 1.17459
206.50 1.17095
207.00 1.16728
207.50 1.16174
208.00 1.15496
208.50 1.14815
209.00 1.13947
209.50 1.12867
210.00 1.11782
210.50 1.10691
211.00 1.09661
211.50 1.08755
212.00 1.07841
212.50 1.06489
213.00 1.04794
213.50 1.03090
214.00 1.01378
214.50 0.99699
215.00 0.98086
215.50 0.96466
216.00 0.94421
216.50 0.92184
217.00 0.89941
217.50 0.88009
218.00 0.86092
218.50 0.84163
219.00 0.82019
219.50 0.79539
220.00 0.77049
220.50 0.74653
221.00 0.72330
221.50 0.70000
222.00 0.67661
222.50 0.65091
223.00 0.62509
223.50 0.59920
224.00 0.57324
224.50 0.54853
225.00 0.52399
225.50 0.49953
226.00 0.47498
226.50 0.45278
227.00 0.43062
227.50 0.40843
228.00 0.38620
228.50 0.36788
229.00 0.35019
229.50 0.33247
230.00 0.31472
230.50 0.29693
231.00 0.27912
231.50 0.26118
232.00 0.24313
232.50 0.23077
233.00 0.21955
233.50 0.20833
234.00 0.19694
234.50 0.18553
235.00 0.17412
235.50 0.16269
236.00 0.15125
236.50 0.13980
237.00 0.13147
237.50 0.12441
238.00 0.11829
238.50 0.11216
239.00 0.10603
239.50 0.09989
240.00 0.09375
240.50 0.08760
241.00 0.08145
241.50 0.07535
242.00 0.07099
242.50 0.06662
243.00 0.06227
243.50 0.05890
244.00 0.05617
244.50 0.05343
245.00 0.05070
245.50 0.04796
246.00 0.04522
246.50 0.04248
247.00 0.03974
247.50 0.03700
248.00 0.03426
248.50 0.03196
249.00 0.02982
249.50 0.02767
250.00 0.02585
250.50 0.02467
251.00 0.02348
251.50 0.02229
252.00 0.02110
252.50 0.01992
253.00 0.01873
253.50 0.01754
254.00 0.01635
254.50 0.01522
255.00 0.01412
255.50 0.01327
256.00 0.01265
256.50 0.01202
257.00 0.01142
257.50 0.01086
258.00 0.01029
258.50 0.00972
259.00 0.00915
259.50 0.00859
260.00 0.00802
260.50 0.00745
261.00 0.00712
261.50 0.00685
262.00 0.00658
262.50 0.00632
263.00 0.00605
263.50 0.00579
264.00 0.00552
264.50 0.00526
265.00 0.00500
265.50 0.00472
266.00 0.00463
266.50 0.00453
267.00 0.00443
267.50 0.00433
268.00 0.00424
268.50 0.00414
269.00 0.00405
269.50 0.00395
270.00 0.00386
270.00 0.00386
270.50 0.00395
271.00 0.00405
271.50 0.00414
272.00 0.00424
272.50 0.00433
273.00 0.00443
273.50 0.00453
274.00 0.00463
274.50 0.00472
275.00 0.00500
275.50 0.00526
276.00 0.00552
276.50 0.00579
277.00 0.00605
277.50 0.00632
278.00 0.00658
278.50 0.00685
279.00 0.00712
279.50 0.00745
280.00 0.00802
280.50 0.00859
281.00 0.00915
281.50 0.00972
282.00 0.01029
282.50 0.01086
283.00 0.01142
283.50 0.01202
284.00 0.01265
284.50 0.01327
285.00 0.01412
285.50 0.01522
286.00 0.01635
286.50 0.01754
287.00 0.01873
287.50 0.01992
288.00 0.02110
288.50 0.02229
289.00 0.02348
289.50 0.02467
290.00 0.02585
290.50 0.02767
291.00 0.02982
291.50 0.03196
292.00 0.03426
292.50 0.03700
293.00 0.03974
293.50 0.04248
294.00 0.04522
294.50 0.04796
295.00 0.05070
295.50 0.05343
296.00 0.05617
296.50 0.05890
297.00 0.06227
297.50 0.06662
298.00 0.07099
298.50 0.07535
299.00 0.08145
299.50 0.08760
300.00 0.09375
300.50 0.09989
301.00 0.10603
301.50 0.11216
302.00 0.11829
302.50 0.12441
303.00 0.13147
303.50 0.13980
304.00 0.15125
304.50 0.16269
305.00 0.17412
305.50 0.18553
306.00 0.19694
306.50 0.20833
307.00 0.21955
307.50 0.23077
308.00 0.24313
308.50 0.26118
309.00 0.27912
309.50 0.29693
310.00 0.31472
310.50 0.33247
311.00 0.35019
311.50 0.36788
312.00 0.38620
312.50 0.40843
313.00 0.43062
313.50 0.45278
314.00 0.47498
314.50 0.49953
315.00 0.52399
315.50 0.54853
316.00 0.57324
316.50 0.59920
317.00 0.62509
317.50 0.65091
318.00 0.67661
318.50 0.70000
319.00 0.72330
319.50 0.74653
320.00 0.77049
320.50 0.79539
321.00 0.82019
321.50 0.84163
322.00 0.86092
322.50 0.88009
323.00 0.89941
323.50 0.92184
324.00 0.94421
324.50 0.96466
325.00 0.98086
325.50 0.99699
326.00 1.01378
326.50 1.03090
327.00 1.04794
327.50 1.06489
328.00 1.07841
328.50 1.08755
329.00 1.09661
329.50 1.10691
330.00 1.11782
330.50 1.12867
331.00 1.13947
331.50 1.14815
332.00 1.15496
332.50 1.16174
333.00 1.16728
333.50 1.17095
334.00 1.17459
334.50 1.17820
335.00 1.18231
335.50 1.18670
336.00 1.18941
336.50 1.19114
337.00 1.19286
337.50 1.19457
338.00 1.19627
338.50 1.19637
339.00 1.19533
339.50 1.19428
340.00 1.19332
340.50 1.19241
341.00 1.19149
341.50 1.18999
342.00 1.18838
342.50 1.18696
343.00 1.18553
343.50 1.18386
344.00 1.18216
344.50 1.18043
345.00 1.17914
345.50 1.17788
346.00 1.17659
346.50 1.17529
347.00 1.17403
347.50 1.17283
348.00 1.17161
348.50 1.17161
349.00 1.17181
349.50 1.17200
350.00 1.17140
350.50 1.17062
351.00 1.16983
351.50 1.16907
352.00 1.16941
352.50 1.16974
353.00 1.17006
353.50 1.17037
354.00 1.17068
354.50 1.17065
355.00 1.17091
355.50 1.17125
356.00 1.17160
356.50 1.17194
357.00 1.17229
357.50 1.17252
358.00 1.17265
358.50 1.17279
359.00 1.17293
359.50 1.17306
360.00 1.17318
