phi[deg] B[T]
0.00 1.01231
0.50 1.01231
1.00 1.01159
1.50 1.00856
2.00 1.00314
2.50 1.00407
3.00 1.00180
3.50 1.00228
4.00 1.00205
4.50 1.00056
5.00 0.99796
5.50 0.99514
6.00 0.99669
6.50 0.99722
7.00 0.99533
7.50 0.99469
8.00 0.99458
8.50 0.99129
9.00 0.99356
9.50 0.98966
10.00 0.99058
10.50 0.98976
11.00 0.99196
11.50 0.99120
12.00 0.98887
12.50 0.98844
13.00 0.98773
13.50 0.98986
14.00 0.99814
14.50 0.99533
15.00 1.00075
15.50 1.00171
16.00 1.01541
16.50 1.01143
17.00 1.01128
17.50 1.01398
18.00 1.01004
18.50 1.01085
19.00 1.01154
19.50 1.00824
20.00 1.00366
20.50 1.00274
21.00 1.00152
21.50 1.00151
22.00 0.99774
22.50 0.99713
23.00 0.99222
23.50 0.99019
24.00 0.98949
24.50 0.98714
25.00 0.98582
25.50 0.98270
26.00 0.97799
26.50 0.97094
27.00 0.97357
27.50 0.96709
28.00 0.96148
28.50 0.96070
29.00 0.97588
29.50 0.97026
30.00 0.96465
30.50 0.95281
31.00 0.94214
31.50 0.92237
32.00 0.92910
32.50 0.91921
33.00 0.89676
33.50 0.88960
34.00 0.88157
34.50 0.86533
35.00 0.85534
35.50 0.84580
36.00 0.82548
36.50 0.82132
37.00 0.81005
37.50 0.80111
38.00 0.79232
38.50 0.78066
39.00 0.75976
39.50 0.74872
40.00 0.73688
40.50 0.71960
41.00 0.70648
41.50 0.71972
42.00 0.69483
42.50 0.65771
43.00 0.64836
43.50 0.64870
44.00 0.68240
44.50 0.68805
45.00 0.68805
45.50 0.68385
46.00 0.51883
46.50 0.37411
47.00 0.37411
47.50 0.36917
48.00 0.33753
48.50 0.29933
49.00 0.28866
49.50 0.26920
50.00 0.24581
50.50 0.22787
51.00 0.22140
51.50 0.20415
52.00 0.17763
52.50 0.17227
53.00 0.16454
53.50 0.16063
54.00 0.13889
54.50 0.13133
55.00 0.12324
55.50 0.11923
56.00 0.11698
56.50 0.09790
57.00 0.09575
57.50 0.09139
58.00 0.08661
58.50 0.08115
59.00 0.07281
59.50 0.06685
60.00 0.06362
60.50 0.05981
61.00 0.05149
61.50 0.05149
62.00 0.05088
62.50 0.04742
63.00 0.04579
63.50 0.04234
64.00 0.03906
64.50 0.03770
65.00 0.03207
65.50 0.03041
66.00 0.02737
66.50 0.02692
67.00 0.02692
67.50 0.02613
68.00 0.02506
68.50 0.02262
69.00 0.01934
69.50 0.01934
70.00 0.01687
70.50 0.01609
71.00 0.01464
71.50 0.01293
72.00 0.01264
72.50 0.01250
73.00 0.01250
73.50 0.01131
74.00 0.01027
74.50 0.00973
75.00 0.00907
75.50 0.00897
76.00 0.00820
76.50 0.00729
77.00 0.00703
77.50 0.00680
78.00 0.00665
78.50 0.00632
79.00 0.00534
79.50 0.00433
80.00 0.00427
80.50 0.00418
81.00 0.00412
81.50 0.00399
82.00 0.00376
82.50 0.00348
83.00 0.00314
83.50 0.00283
84.00 0.00265
84.50 0.00248
85.00 0.00235
85.50 0.00235
86.00 0.00222
86.50 0.00217
87.00 0.00202
87.50 0.00186
88.00 0.00176
88.50 0.00161
89.00 0.00156
89.50 0.00156
90.00 0.00156
90.00 0.00156
90.50 0.00156
91.00 0.00156
91.50 0.00161
92.00 0.00176
92.50 0.00186
93.00 0.00202
93.50 0.00217
94.00 0.00222
94.50 0.00235
95.00 0.00235
95.50 0.00248
96.00 0.00265
96.50 0.00283
97.00 0.00314
97.50 0.00348
98.00 0.00376
98.50 0.00399
99.00 0.00412
99.50 0.00418
100.00 0.00427
100.50 0.00433
101.00 0.00534
101.50 0.00632
102.00 0.00665
102.50 0.00680
103.00 0.00703
103.50 0.00729
104.00 0.00820
104.50 0.00897
105.00 0.00907
105.50 0.00973
106.00 0.01027
106.50 0.01131
107.00 0.01250
107.50 0.01250
108.00 0.01264
108.50 0.01293
109.00 0.01464
109.50 0.01609
110.00 0.01687
110.50 0.01934
111.00 0.01934
111.50 0.02262
112.00 0.02506
112.50 0.02613
113.00 0.02692
113.50 0.02692
114.00 0.02737
114.50 0.03041
115.00 0.03207
115.50 0.03770
116.00 0.03906
116.50 0.04234
117.00 0.04579
117.50 0.04742
118.00 0.05088
118.50 0.05149
119.00 0.05149
119.50 0.05981
120.00 0.06362
120.50 0.06685
121.00 0.07281
121.50 0.08115
122.00 0.08661
122.50 0.09139
123.00 0.09575
123.50 0.09790
124.00 0.11698
124.50 0.11923
125.00 0.12324
125.50 0.13133
126.00 0.13889
126.50 0.16063
127.00 0.16454
127.50 0.17227
128.00 0.17763
128.50 0.20415
129.00 0.22140
129.50 0.22787
130.00 0.24581
130.50 0.26920
131.00 0.28866
131.50 0.29933
132.00 0.33753
132.50 0.36917
133.00 0.37411
133.50 0.37411
134.00 0.51883
134.50 0.68385
135.00 0.68805
135.50 0.68805
136.00 0.68240
136.50 0.64870
137.00 0.64836
137.50 0.65771
138.00 0.69483
138.50 0.71972
139.00 0.70648
139.50 0.71960
140.00 0.73688
140.50 0.74872
141.00 0.75976
141.50 0.78066
142.00 0.79232
142.50 0.80111
143.00 0.81005
143.50 0.82132
144.00 0.82548
144.50 0.84580
145.00 0.85534
145.50 0.86533
146.00 0.88157
146.50 0.88960
147.00 0.89676
147.50 0.91921
148.00 0.92910
148.50 0.92237
149.00 0.94214
149.50 0.95281
150.00 0.96465
150.50 0.97026
151.00 0.97588
151.50 0.96070
152.00 0.96148
152.50 0.96709
153.00 0.97357
153.50 0.97094
154.00 0.97799
154.50 0.98270
155.00 0.98582
155.50 0.98714
156.00 0.98949
156.50 0.99019
157.00 0.99222
157.50 0.99713
158.00 0.99774
158.50 1.00151
159.00 1.00152
159.50 1.00274
160.00 1.00366
160.50 1.00824
161.00 1.01154
161.50 1.01085
162.00 1.01004
162.50 1.01398
163.00 1.01128
163.50 1.01143
164.00 1.01541
164.50 1.00171
165.00 1.00075
165.50 0.99533
166.00 0.99814
166.50 0.98986
167.00 0.98773
167.50 0.98844
168.00 0.98887
168.50 0.99120
169.00 0.99196
169.50 0.98976
170.00 0.99058
170.50 0.98966
171.00 0.99356
171.50 0.99129
172.00 0.99458
172.50 0.99469
173.00 0.99533
173.50 0.99722
174.00 0.99669
174.50 0.99514
175.00 0.99796
175.50 1.00056
176.00 1.00205
176.50 1.00228
177.00 1.00180
177.50 1.00407
178.00 1.00314
178.50 1.00856
179.00 1.01159
179.50 1.01231
180.00 1.01231
180.00 1.01231
180.50 1.01231
181.00 1.01159
181.50 1.00856
182.00 1.00314
182.50 1.00407
183.00 1.00180
183.50 1.00228
184.00 1.00205
184.50 1.00056
185.00 0.99796
185.50 0.99514
186.00 0.99669
186.50 0.99722
187.00 0.99533
187.50 0.99469
188.00 0.99458
188.50 0.99129
189.00 0.99356
189.50 0.98966
190.00 0.99058
190.50 0.98976
191.00 0.99196
191.50 0.99120
192.00 0.98887
192.50 0.98844
193.00 0.98773
193.50 0.98986
194.00 0.99814
194.50 0.99533
195.00 1.00075
195.50 1.00171
196.00 1.01541
196.50 1.01143
197.00 1.01128
197.50 1.01398
198.00 1.01004
198.50 1.01085
199.00 1.01154
199.50 1.00824
200.00 1.00366
200.50 1.00274
201.00 1.00152
201.50 1.00151
202.00 0.99774
202.50 0.99713
203.00 0.99222
203.50 0.99019
204.00 0.98949
204.50 0.98714
205.00 0.98582
205.50 0.98270
206.00 0.97799
206.50 0.97094
207.00 0.97357
207.50 0.96709
208.00 0.96148
208.50 0.96070
209.00 0.97588
209.50 0.97026
210.00 0.96465
210.50 0.95281
211.00 0.94214
211.50 0.92237
212.00 0.92910
212.50 0.91921
213.00 0.89676
213.50 0.88960
214.00 0.88157
214.50 0.86533
215.00 0.85534
215.50 0.84580
216.00 0.82548
216.50 0.82132
217.00 0.81005
217.50 0.80111
218.00 0.79232
218.50 0.78066
219.00 0.75976
219.50 0.74872
220.00 0.73688
220.50 0.71960
221.00 0.70648
221.50 0.71972
222.00 0.69483
222.50 0.65771
223.00 0.64836
223.50 0.64870
224.00 0.68240
224.50 0.68805
225.00 0.68805
225.50 0.68385
226.00 0.51883
226.50 0.37411
227.00 0.37411
227.50 0.36917
228.00 0.33753
228.50 0.29933
229.00 0.28866
229.50 0.26920
230.00 0.24581
230.50 0.22787
231.00 0.22140
231.50 0.20415
232.00 0.17763
232.50 0.17227
233.00 0.16454
233.50 0.16063
234.00 0.13889
234.50 0.13133
235.00 0.12324
235.50 0.11923
236.00 0.11698
236.50 0.09790
237.00 0.09575
237.50 0.09139
238.00 0.08661
238.50 0.08115
239.00 0.07281
239.50 0.06685
240.00 0.06362
240.50 0.05981
241.00 0.05149
241.50 0.05149
242.00 0.05088
242.50 0.04742
243.00 0.04579
243.50 0.04234
244.00 0.03906
244.50 0.03770
245.00 0.03207
245.50 0.03041
246.00 0.02737
246.50 0.02692
247.00 0.02692
247.50 0.02613
248.00 0.02506
248.50 0.02262
249.00 0.01934
249.50 0.01934
250.00 0.01687
250.50 0.01609
251.00 0.01464
251.50 0.01293
252.00 0.01264
252.50 0.01250
253.00 0.01250
253.50 0.01131
254.00 0.01027
254.50 0.00973
255.00 0.00907
255.50 0.00897
256.00 0.00820
256.50 0.00729
257.00 0.00703
257.50 0.00680
258.00 0.00665
258.50 0.00632
259.00 0.00534
259.50 0.00433
260.00 0.00427
260.50 0.00418
261.00 0.00412
261.50 0.00399
262.00 0.00376
262.50 0.00348
263.00 0.00314
263.50 0.00283
264.00 0.00265
264.50 0.00248
265.00 0.00235
265.50 0.00235
266.00 0.00222
266.50 0.00217
267.00 0.00202
267.50 0.00186
268.00 0.00176
268.50 0.00161
269.00 0.00156
269.50 0.00156
270.00 0.00156
270.00 0.00156
270.50 0.00156
271.00 0.00156
271.50 0.00161
272.00 0.00176
272.50 0.00186
273.00 0.00202
273.50 0.00217
274.00 0.00222
274.50 0.00235
275.00 0.00235
275.50 0.00248
276.00 0.00265
276.50 0.00283
277.00 0.00314
277.50 0.00348
278.00 0.00376
278.50 0.00399
279.00 0.00412
279.50 0.00418
280.00 0.00427
280.50 0.00433
281.00 0.00534
281.50 0.00632
282.00 0.00665
282.50 0.00680
283.00 0.00703
283.50 0.00729
284.00 0.00820
284.50 0.00897
285.00 0.00907
285.50 0.00973
286.00 0.01027
286.50 0.01131
287.00 0.01250
287.50 0.01250
288.00 0.01264
288.50 0.01293
289.00 0.01464
289.50 0.01609
290.00 0.01687
290.50 0.01934
291.00 0.01934
291.50 0.02262
292.00 0.02506
292.50 0.02613
293.00 0.02692
293.50 0.02692
294.00 0.02737
294.50 0.03041
295.00 0.03207
295.50 0.03770
296.00 0.03906
296.50 0.04234
297.00 0.04579
297.50 0.04742
298.00 0.05088
298.50 0.05149
299.00 0.05149
299.50 0.05981
300.00 0.06362
300.50 0.06685
301.00 0.07281
301.50 0.08115
302.00 0.08661
302.50 0.09139
303.00 0.09575
303.50 0.09790
304.00 0.11698
304.50 0.11923
305.00 0.12324
305.50 0.13133
306.00 0.13889
306.50 0.16063
307.00 0.16454
307.50 0.17227
308.00 0.17763
308.50 0.20415
309.00 0.22140
309.50 0.22787
310.00 0.24581
310.50 0.26920
311.00 0.28866
311.50 0.29933
312.00 0.33753
312.50 0.36917
313.00 0.37411
313.50 0.37411
314.00 0.51883
314.50 0.68385
315.00 0.68805
315.50 0.68805
316.00 0.68240
316.50 0.64870
317.00 0.64836
317.50 0.65771
318.00 0.69483
318.50 0.71972
319.00 0.70648
319.50 0.71960
320.00 0.73688
320.50 0.74872
321.00 0.75976
321.50 0.78066
322.00 0.79232
322.50 0.80111
323.00 0.81005
323.50 0.82132
324.00 0.82548
324.50 0.84580
325.00 0.85534
325.50 0.86533
326.00 0.88157
326.50 0.88960
327.00 0.89676
327.50 0.91921
328.00 0.92910
328.50 0.92237
329.00 0.94214
329.50 0.95281
330.00 0.96465
330.50 0.97026
331.00 0.97588
331.50 0.96070
332.00 0.96148
332.50 0.96709
333.00 0.97357
333.50 0.97094
334.00 0.97799
334.50 0.98270
335.00 0.98582
335.50 0.98714
336.00 0.98949
336.50 0.99019
337.00 0.99222
337.50 0.99713
338.00 0.99774
338.50 1.00151
339.00 1.00152
339.50 1.00274
340.00 1.00366
340.50 1.00824
341.00 1.01154
341.50 1.01085
342.00 1.01004
342.50 1.01398
343.00 1.01128
343.50 1.01143
344.00 1.01541
344.50 1.00171
345.00 1.00075
345.50 0.99533
346.00 0.99814
346.50 0.98986
347.00 0.98773
347.50 0.98844
348.00 0.98887
348.50 0.99120
349.00 0.99196
349.50 0.98976
350.00 0.99058
350.50 0.98966
351.00 0.99356
351.50 0.99129
352.00 0.99458
352.50 0.99469
353.00 0.99533
353.50 0.99722
354.00 0.99669
354.50 0.99514
355.00 0.99796
355.50 1.00056
356.00 1.00205
356.50 1.00228
357.00 1.00180
357.50 1.00407
358.00 1.00314
358.50 1.00856
359.00 1.01159
359.50 1.01231
360.00 1.01231
