phi[deg] B[T]
0.00 1.20169
0.50 1.20162
1.00 1.20162
1.50 1.20178
2.00 1.20202
2.50 1.20234
3.00 1.20259
3.50 1.20264
4.00 1.20276
4.50 1.20296
5.00 1.20359
5.50 1.20421
6.00 1.20460
6.50 1.20506
7.00 1.20560
7.50 1.20623
8.00 1.20694
8.50 1.20687
9.00 1.20726
9.50 1.20806
10.00 1.20892
10.50 1.20983
11.00 1.21079
11.50 1.21181
12.00 1.21288
12.50 1.21239
13.00 1.21078
13.50 1.20922
14.00 1.20771
14.50 1.20645
15.00 1.20779
15.50 1.20914
16.00 1.21052
16.50 1.21150
17.00 1.21214
17.50 1.21280
18.00 1.21083
18.50 1.20740
19.00 1.20396
19.50 1.20052
20.00 1.19706
20.50 1.19360
21.00 1.19184
21.50 1.19162
22.00 1.19137
22.50 1.18972
23.00 1.18565
23.50 1.18153
24.00 1.17619
24.50 1.16750
25.00 1.15872
25.50 1.14988
26.00 1.14096
26.50 1.13197
27.00 1.12291
27.50 1.11377
28.00 1.10506
28.50 1.09834
29.00 1.09071
29.50 1.07976
30.00 1.06872
30.50 1.05710
31.00 1.04439
31.50 1.03158
32.00 1.01866
32.50 1.00565
33.00 0.99169
33.50 0.97424
34.00 0.95668
34.50 0.93904
35.00 0.92130
35.50 0.90348
36.00 0.88556
36.50 0.86644
37.00 0.84596
37.50 0.82531
38.00 0.80456
38.50 0.78414
39.00 0.76419
39.50 0.74398
40.00 0.72186
40.50 0.70112
41.00 0.68027
41.50 0.65932
42.00 0.63822
42.50 0.61484
43.00 0.59137
43.50 0.56779
44.00 0.54411
44.50 0.52039
45.00 0.49739
45.50 0.47382
46.00 0.45335
46.50 0.43307
47.00 0.41275
47.50 0.39239
48.00 0.37198
48.50 0.35355
49.00 0.33526
49.50 0.31693
50.00 0.29855
50.50 0.28013
51.00 0.26495
51.50 0.25140
52.00 0.23782
52.50 0.22423
53.00 0.21063
53.50 0.19701
54.00 0.18585
54.50 0.17666
55.00 0.16746
55.50 0.15827
56.00 0.14931
56.50 0.14047
57.00 0.13163
57.50 0.12280
58.00 0.11396
58.50 0.10577
59.00 0.10093
59.50 0.09610
60.00 0.09126
60.50 0.08642
61.00 0.08158
61.50 0.07677
62.00 0.07214
62.50 0.06751
63.00 0.06288
63.50 0.05826
64.00 0.05365
64.50 0.04989
65.00 0.04766
65.50 0.04542
66.00 0.04318
66.50 0.04094
67.00 0.03870
67.50 0.03646
68.00 0.03421
68.50 0.03197
69.00 0.02973
69.50 0.02755
70.00 0.02539
70.50 0.02413
71.00 0.02305
71.50 0.02197
72.00 0.02089
72.50 0.01980
73.00 0.01872
73.50 0.01763
74.00 0.01655
74.50 0.01547
75.00 0.01439
75.50 0.01331
76.00 0.01224
76.50 0.01173
77.00 0.01122
77.50 0.01071
78.00 0.01021
78.50 0.00970
79.00 0.00916
79.50 0.00861
80.00 0.00807
80.50 0.00753
81.00 0.00699
81.50 0.00662
82.00 0.00639
82.50 0.00616
83.00 0.00593
83.50 0.00570
84.00 0.00547
84.50 0.00524
85.00 0.00501
85.50 0.00478
86.00 0.00461
86.50 0.00452
87.00 0.00442
87.50 0.00432
88.00 0.00423
88.50 0.00414
89.00 0.00404
89.50 0.00395
90.00 0.00386
90.00 0.00386
90.50 0.00395
91.00 0.00404
91.50 0.00414
92.00 0.00423
92.50 0.00432
93.00 0.00442
93.50 0.00452
94.00 0.00461
94.50 0.00478
95.00 0.00501
95.50 0.00524
96.00 0.00547
96.50 0.00570
97.00 0.00593
97.50 0.00616
98.00 0.00639
98.50 0.00662
99.00 0.00699
99.50 0.00753
100.00 0.00807
100.50 0.00861
101.00 0.00916
101.50 0.00970
102.00 0.01021
102.50 0.01071
103.00 0.01122
103.50 0.01173
104.00 0.01224
104.50 0.01331
105.00 0.01439
105.50 0.01547
106.00 0.01655
106.50 0.01763
107.00 0.01872
107.50 0.01980
108.00 0.02089
108.50 0.02197
109.00 0.02305
109.50 0.02413
110.00 0.02539
110.50 0.02755
111.00 0.02973
111.50 0.03197
112.00 0.03421
112.50 0.03646
113.00 0.03870
113.50 0.04094
114.00 0.04318
114.50 0.04542
115.00 0.04766
115.50 0.04989
116.00 0.05365
116.50 0.05826
117.00 0.06288
117.50 0.06751
118.00 0.07214
118.50 0.07677
119.00 0.08158
119.50 0.08642
120.00 0.09126
120.50 0.09610
121.00 0.10093
121.50 0.10577
122.00 0.11396
122.50 0.12280
123.00 0.13163
123.50 0.14047
124.00 0.14931
124.50 0.15827
125.00 0.16746
125.50 0.17666
126.00 0.18585
126.50 0.19701
127.00 0.21063
127.50 0.22423
128.00 0.23782
128.50 0.25140
129.00 0.26495
129.50 0.28013
130.00 0.29855
130.50 0.31693
131.00 0.33526
131.50 0.35355
132.00 0.37198
132.50 0.39239
133.00 0.41275
133.50 0.43307
134.00 0.45335
134.50 0.47382
135.00 0.49739
135.50 0.52039
136.00 0.54411
136.50 0.56779
137.00 0.59137
137.50 0.61484
138.00 0.63822
138.50 0.65932
139.00 0.68027
139.50 0.70112
140.00 0.72186
140.50 0.74398
141.00 0.76419
141.50 0.78414
142.00 0.80456
142.50 0.82531
143.00 0.84596
143.50 0.86644
144.00 0.88556
144.50 0.90348
145.00 0.92130
145.50 0.93904
146.00 0.95668
146.50 0.97424
147.00 0.99169
147.50 1.00565
148.00 1.01866
148.50 1.03158
149.00 1.04439
149.50 1.05710
150.00 1.06872
150.50 1.07976
151.00 1.09071
151.50 1.09834
152.00 1.10506
152.50 1.11377
153.00 1.12291
153.50 1.13197
154.00 1.14096
154.50 1.14988
155.00 1.15872
155.50 1.16750
156.00 1.17619
156.50 1.18153
157.00 1.18565
157.50 1.18972
158.00 1.19137
158.50 1.19162
159.00 1.19184
159.50 1.19360
160.00 1.19706
160.50 1.20052
161.00 1.20396
161.50 1.20740
162.00 1.21083
162.50 1.21280
163.00 1.21214
163.50 1.21150
164.00 1.21052
164.50 1.20914
165.00 1.20779
165.50 1.20645
166.00 1.20771
166.50 1.20922
167.00 1.21078
167.50 1.21239
168.00 1.21288
168.50 1.21181
169.00 1.21079
169.50 1.20983
170.00 1.20892
170.50 1.20806
171.00 1.20726
171.50 1.20687
172.00 1.20694
172.50 1.20623
173.00 1.20560
173.50 1.20506
174.00 1.20460
174.50 1.20421
175.00 1.20359
175.50 1.20296
176.00 1.20276
176.50 1.20264
177.00 1.20259
177.50 1.20234
178.00 1.20202
178.50 1.20178
179.00 1.20162
179.50 1.20162
180.00 1.20169
180.00 1.20169
180.50 1.20162
181.00 1.20162
181.50 1.20178
182.00 1.20202
182.50 1.20234
183.00 1.20259
183.50 1.20264
184.00 1.20276
184.50 1.20296
185.00 1.20359
185.50 1.20421
186.00 1.20460
186.50 1.20506
187.00 1.20560
187.50 1.20623
188.00 1.20694
188.50 1.20687
189.00 1.20726
189.50 1.20806
190.00 1.20892
190.50 1.20983
191.00 1.21079
191.50 1.21181
192.00 1.21288
192.50 1.21239
193.00 1.21078
193.50 1.20922
194.00 1.20771
194.50 1.20645
195.00 1.20779
195.50 1.20914
196.00 1.21052
196.50 1.21150
197.00 1.21214
197.50 1.21280
198.00 1.21083
198.50 1.20740
199.00 1.20396
199.50 1.20052
200.00 1.19706
200.50 1.19360
201.00 1.19184
201.50 1.19162
202.00 1.19137
202.50 1.18972
203.00 1.18565
203.50 1.18153
204.00 1.17619
204.50 1.16750
205.00 1.15872
205.50 1.14988
206.00 1.14096
206.50 1.13197
207.00 1.12291
207.50 1.11377
208.00 1.10506
208.50 1.09834
209.00 1.09071
209.50 1.07976
210.00 1.06872
210.50 1.05710
211.00 1.04439
211.50 1.03158
212.00 1.01866
212.50 1.00565
213.00 0.99169
213.50 0.97424
214.00 0.95668
214.50 0.93904
215.00 0.92130
215.50 0.90348
216.00 0.88556
216.50 0.86644
217.00 0.84596
217.50 0.82531
218.00 0.80456
218.50 0.78414
219.00 0.76419
219.50 0.74398
220.00 0.72186
220.50 0.70112
221.00 0.68027
221.50 0.65932
222.00 0.63822
222.50 0.61484
223.00 0.59137
223.50 0.56779
224.00 0.54411
224.50 0.52039
225.00 0.49739
225.50 0.47382
226.00 0.45335
226.50 0.43307
227.00 0.41275
227.50 0.39239
228.00 0.37198
228.50 0.35355
229.00 0.33526
229.50 0.31693
230.00 0.29855
230.50 0.28013
231.00 0.26495
231.50 0.25140
232.00 0.23782
232.50 0.22423
233.00 0.21063
233.50 0.19701
234.00 0.18585
234.50 0.17666
235.00 0.16746
235.50 0.15827
236.00 0.14931
236.50 0.14047
237.00 0.13163
237.50 0.12280
238.00 0.11396
238.50 0.10577
239.00 0.10093
239.50 0.09610
240.00 0.09126
240.50 0.08642
241.00 0.08158
241.50 0.07677
242.00 0.07214
242.50 0.06751
243.00 0.06288
243.50 0.05826
244.00 0.05365
244.50 0.04989
245.00 0.04766
245.50 0.04542
246.00 0.04318
246.50 0.04094
247.00 0.03870
247.50 0.03646
248.00 0.03421
248.50 0.03197
249.00 0.02973
249.50 0.02755
250.00 0.02539
250.50 0.02413
251.00 0.02305
251.50 0.02197
252.00 0.02089
252.50 0.01980
253.00 0.01872
253.50 0.01763
254.00 0.01655
254.50 0.01547
255.00 0.01439
255.50 0.01331
256.00 0.01224
256.50 0.01173
257.00 0.01122
257.50 0.01071
258.00 0.01021
258.50 0.00970
259.00 0.00916
259.50 0.00861
260.00 0.00807
260.50 0.00753
261.00 0.00699
261.50 0.00662
262.00 0.00639
262.50 0.00616
263.00 0.00593
263.50 0.00570
264.00 0.00547
264.50 0.00524
265.00 0.00501
265.50 0.00478
266.00 0.00461
266.50 0.00452
267.00 0.00442
267.50 0.00432
268.00 0.00423
268.50 0.00414
269.00 0.00404
269.50 0.00395
270.00 0.00386
270.00 0.00386
270.50 0.00395
271.00 0.00404
271.50 0.00414
272.00 0.00423
272.50 0.00432
273.00 0.00442
273.50 0.00452
274.00 0.00461
274.50 0.00478
275.00 0.00501
275.50 0.00524
276.00 0.00547
276.50 0.00570
277.00 0.00593
277.50 0.00616
278.00 0.00639
278.50 0.00662
279.00 0.00699
279.50 0.00753
280.00 0.00807
280.50 0.00861
281.00 0.00916
281.50 0.00970
282.00 0.01021
282.50 0.01071
283.00 0.01122
283.50 0.01173
284.00 0.01224
284.50 0.01331
285.00 0.01439
285.50 0.01547
286.00 0.01655
286.50 0.01763
287.00 0.01872
287.50 0.01980
288.00 0.02089
288.50 0.02197
289.00 0.02305
289.50 0.02413
290.00 0.02539
290.50 0.02755
291.00 0.02973
291.50 0.03197
292.00 0.03421
292.50 0.03646
293.00 0.03870
293.50 0.04094
294.00 0.04318
294.50 0.04542
295.00 0.04766
295.50 0.04989
296.00 0.05365
296.50 0.05826
297.00 0.06288
297.50 0.06751
298.00 0.07214
298.50 0.07677
299.00 0.08158
299.50 0.08642
300.00 0.09126
300.50 0.09610
301.00 0.10093
301.50 0.10577
302.00 0.11396
302.50 0.12280
303.00 0.13163
303.50 0.14047
304.00 0.14931
304.50 0.15827
305.00 0.16746
305.50 0.17666
306.00 0.18585
306.50 0.19701
307.00 0.21063
307.50 0.22423
308.00 0.23782
308.50 0.25140
309.00 0.26495
309.50 0.28013
310.00 0.29855
310.50 0.31693
311.00 0.33526
311.50 0.35355
312.00 0.37198
312.50 0.39239
313.00 0.41275
313.50 0.43307
314.00 0.45335
314.50 0.47382
315.00 0.49739
315.50 0.52039
316.00 0.54411
316.50 0.56779
317.00 0.59137
317.50 0.61484
318.00 0.63822
318.50 0.65932
319.00 0.68027
319.50 0.70112
320.00 0.72186
320.50 0.74398
321.00 0.76419
321.50 0.78414
322.00 0.80456
322.50 0.82531
323.00 0.84596
323.50 0.86644
324.00 0.88556
324.50 0.90348
325.00 0.92130
325.50 0.93904
326.00 0.95668
326.50 0.97424
327.00 0.99169
327.50 1.00565
328.00 1.01866
328.50 1.03158
329.00 1.04439
329.50 1.05710
330.00 1.06872
330.50 1.07976
331.00 1.09071
331.50 1.09834
332.00 1.10506
332.50 1.11377
333.00 1.12291
333.50 1.13197
334.00 1.14096
334.50 1.14988
335.00 1.15872
335.50 1.16750
336.00 1.17619
336.50 1.18153
337.00 1.18565
337.50 1.18972
338.00 1.19137
338.50 1.19162
339.00 1.19184
339.50 1.19360
340.00 1.19706
340.50 1.20052
341.00 1.20396
341.50 1.20740
342.00 1.21083
342.50 1.21280
343.00 1.21214
343.50 1.21150
344.00 1.21052
344.50 1.20914
345.00 1.20779
345.50 1.20645
346.00 1.20771
346.50 1.20922
347.00 1.21078
347.50 1.21239
348.00 1.21288
348.50 1.21181
349.00 1.21079
349.50 1.20983
350.00 1.20892
350.50 1.20806
351.00 1.20726
351.50 1.20687
352.00 1.20694
352.50 1.20623
353.00 1.20560
353.50 1.20506
354.00 1.20460
354.50 1.20421
355.00 1.20359
355.50 1.20296
356.00 1.20276
356.50 1.20264
357.00 1.20259
357.50 1.20234
358.00 1.20202
358.50 1.20178
359.00 1.20162
359.50 1.20162
360.00 1.20169
